Loop Time (ms)	IR (16 bit)	Force (N)
256.000	11033.000	1544.310
72.000	11028.000	1544.310
64.000	11031.000	1544.310
63.000	11027.000	1544.440
65.000	11029.000	1544.180
63.000	11026.000	1544.310
65.000	11032.000	1544.180
80.000	11026.000	1544.180
64.000	11028.000	1544.310
63.000	11030.000	1544.310
65.000	11025.000	1544.310
63.000	11032.000	1544.310
64.000	11030.000	1544.310
64.000	11027.000	1544.310
65.000	11030.000	1544.310
63.000	11030.000	1544.180
65.000	11030.000	1544.310
64.000	11030.000	1544.310
63.000	11029.000	1544.180
81.000	11030.000	1544.440
63.000	11034.000	1544.180
64.000	11032.000	1544.180
64.000	11032.000	1544.310
64.000	11031.000	1544.180
64.000	11030.000	1544.310
64.000	11031.000	1544.310
63.000	11032.000	1544.310
64.000	11028.000	1544.310
65.000	11033.000	1544.310
64.000	11034.000	1544.310
63.000	11034.000	1544.310
80.000	11036.000	1544.310
65.000	11037.000	1544.310
63.000	11028.000	1544.310
64.000	11030.000	1544.310
65.000	11032.000	1544.310
63.000	11028.000	1544.310
65.000	11029.000	1544.440
63.000	11026.000	1544.180
64.000	11036.000	1544.310
64.000	11031.000	1544.310
65.000	11029.000	1544.310
63.000	11026.000	1544.310
80.000	11028.000	1544.440
64.000	11032.000	1544.180
64.000	11026.000	1544.310
64.000	11029.000	1544.310
64.000	11031.000	1544.180
64.000	11026.000	1544.310
65.000	11029.000	1544.310
63.000	11032.000	1544.180
63.000	11028.000	1544.310
65.000	11034.000	1544.310
64.000	11041.000	1544.310
64.000	11048.000	1544.310
80.000	11056.000	1544.310
64.000	11064.000	1544.310
63.000	11068.000	1544.180
65.000	11081.000	1544.180
64.000	11075.000	1544.310
64.000	11083.000	1544.310
64.000	11097.000	1544.310
63.000	11102.000	1544.310
64.000	11114.000	1544.180
64.000	11121.000	1544.180
64.000	11135.000	1544.440
64.000	11142.000	1544.310
81.000	11146.000	1544.310
64.000	11155.000	1544.310
63.000	11163.000	1544.310
64.000	11175.000	1544.310
64.000	11183.000	1544.310
64.000	11193.000	1544.310
64.000	11211.000	1544.310
65.000	11215.000	1544.310
64.000	11222.000	1544.310
63.000	11235.000	1544.180
64.000	11245.000	1544.310
64.000	11256.000	1544.180
80.000	11273.000	1544.310
64.000	11278.000	1544.310
63.000	11296.000	1544.310
65.000	11308.000	1544.310
64.000	11321.000	1544.310
64.000	11336.000	1544.310
64.000	11345.000	1544.310
63.000	11368.000	1544.310
65.000	11380.000	1544.180
63.000	11390.000	1544.310
64.000	11411.000	1544.180
65.000	11424.000	1544.310
79.000	11437.000	1544.310
65.000	11460.000	1544.180
63.000	11479.000	1544.310
64.000	11497.000	1544.180
65.000	11513.000	1544.180
64.000	11533.000	1544.310
63.000	11552.000	1544.310
64.000	11574.000	1544.310
64.000	11597.000	1544.310
64.000	11617.000	1544.180
64.000	11639.000	1544.180
64.000	11661.000	1544.310
80.000	11685.000	1544.310
64.000	11716.000	1544.180
64.000	11739.000	1544.180
64.000	11769.000	1544.180
64.000	11794.000	1544.310
64.000	11824.000	1544.310
64.000	11854.000	1544.310
64.000	11886.000	1544.180
63.000	11908.000	1544.310
65.000	11943.000	1544.310
63.000	11970.000	1544.310
64.000	12009.000	1544.310
80.000	12053.000	1544.180
65.000	12082.000	1544.180
63.000	12121.000	1544.310
64.000	12162.000	1544.310
65.000	12201.000	1544.310
64.000	12239.000	1544.310
64.000	12283.000	1544.180
63.000	12325.000	1544.310
64.000	12368.000	1544.310
65.000	12418.000	1544.310
63.000	12468.000	1544.180
64.000	12517.000	1544.440
80.000	12571.000	1544.180
64.000	12622.000	1544.310
65.000	12680.000	1544.310
63.000	12741.000	1544.310
64.000	12806.000	1544.180
64.000	12859.000	1544.310
64.000	12933.000	1544.310
64.000	13000.000	1544.310
64.000	13059.000	1544.440
63.000	13138.000	1544.690
64.000	13212.000	1544.820
65.000	13300.000	1545.080
79.000	13382.000	1545.590
65.000	13473.000	1545.970
64.000	13575.000	1546.610
64.000	13567.000	1546.350
63.000	13467.000	1545.840
65.000	13370.000	1545.590
64.000	13290.000	1545.080
63.000	13205.000	1544.690
65.000	13136.000	1544.570
64.000	13065.000	1544.440
64.000	12999.000	1544.310
63.000	12927.000	1544.310
81.000	12864.000	1544.310
63.000	12797.000	1544.310
65.000	12739.000	1544.180
63.000	12681.000	1544.310
65.000	12624.000	1544.180
64.000	12570.000	1544.310
63.000	12515.000	1544.310
65.000	12466.000	1544.310
63.000	12417.000	1544.310
63.000	12371.000	1544.180
65.000	12321.000	1544.310
65.000	12278.000	1544.310
79.000	12237.000	1544.180
64.000	12194.000	1544.180
64.000	12157.000	1544.180
63.000	12118.000	1544.310
64.000	12085.000	1544.310
65.000	12045.000	1544.310
64.000	12008.000	1544.310
63.000	11976.000	1544.310
65.000	11936.000	1544.310
64.000	11908.000	1544.310
64.000	11875.000	1544.180
63.000	11846.000	1544.310
81.000	11820.000	1544.310
64.000	11796.000	1544.310
63.000	11761.000	1544.310
64.000	11734.000	1544.310
64.000	11715.000	1544.310
65.000	11684.000	1544.310
63.000	11662.000	1544.180
64.000	11638.000	1544.310
65.000	11611.000	1544.180
63.000	11596.000	1544.310
64.000	11570.000	1544.310
64.000	11544.000	1544.310
80.000	11526.000	1544.180
64.000	11509.000	1544.180
64.000	11492.000	1544.180
64.000	11473.000	1544.180
64.000	11456.000	1544.310
64.000	11436.000	1544.310
64.000	11423.000	1544.310
64.000	11407.000	1544.180
64.000	11389.000	1544.180
64.000	11376.000	1544.310
63.000	11361.000	1544.180
65.000	11348.000	1544.180
79.000	11333.000	1544.310
65.000	11317.000	1544.310
63.000	11307.000	1544.310
65.000	11297.000	1544.310
64.000	11282.000	1544.310
64.000	11272.000	1544.310
64.000	11257.000	1544.310
64.000	11248.000	1544.180
63.000	11231.000	1544.310
65.000	11226.000	1544.310
63.000	11212.000	1544.310
64.000	11202.000	1544.310
65.000	11193.000	1544.310
79.000	11177.000	1544.180
64.000	11168.000	1544.180
64.000	11163.000	1544.180
64.000	11150.000	1544.180
64.000	11145.000	1544.310
64.000	11135.000	1544.180
64.000	11129.000	1544.310
64.000	11118.000	1544.180
63.000	11115.000	1544.310
66.000	11098.000	1544.180
64.000	11100.000	1544.310
63.000	11092.000	1544.180
80.000	11083.000	1544.310
64.000	11071.000	1544.180
63.000	11063.000	1544.310
66.000	11053.000	1544.310
63.000	11049.000	1544.180
63.000	11041.000	1544.310
64.000	11040.000	1544.310
65.000	11032.000	1544.180
63.000	11027.000	1544.180
65.000	11024.000	1544.310
63.000	11036.000	1544.180
65.000	11033.000	1544.310
79.000	11036.000	1544.310
64.000	11032.000	1544.180
65.000	11037.000	1544.310
65.000	11028.000	1544.310
62.000	11027.000	1544.180
65.000	11034.000	1544.310
63.000	11031.000	1544.310
65.000	11032.000	1544.310
63.000	11026.000	1544.180
64.000	11027.000	1544.180
64.000	11033.000	1544.310
64.000	11025.000	1544.310
80.000	11031.000	1544.310
65.000	11030.000	1544.180
63.000	11026.000	1544.310
64.000	11027.000	1544.180
64.000	11028.000	1544.310
64.000	11036.000	1544.180
64.000	11034.000	1544.310
64.000	11033.000	1544.180
64.000	11030.000	1544.180
64.000	11031.000	1544.180
63.000	11030.000	1544.180
65.000	11028.000	1544.310
80.000	11031.000	1544.310
64.000	11026.000	1544.310
64.000	11029.000	1544.310
64.000	11028.000	1544.310
64.000	11034.000	1544.180
64.000	11033.000	1544.310
73.000	11032.000	1544.310
55.000	11032.000	1544.310
64.000	11027.000	1544.180
64.000	11034.000	1544.180
63.000	11028.000	1544.310
64.000	11027.000	1544.310
81.000	11038.000	1544.310
69.000	11034.000	1544.310
58.000	11032.000	1544.180
64.000	11027.000	1544.180
64.000	11030.000	1544.180
64.000	11033.000	1544.310
64.000	11030.000	1544.180
63.000	11028.000	1544.310
65.000	11029.000	1544.180
64.000	11024.000	1544.310
64.000	11027.000	1544.180
64.000	11027.000	1544.310
80.000	11030.000	1544.180
64.000	11030.000	1544.310
64.000	11033.000	1544.180
63.000	11030.000	1544.180
65.000	11030.000	1544.180
63.000	11028.000	1544.310
64.000	11031.000	1544.310
64.000	11029.000	1544.310
64.000	11032.000	1544.180
64.000	11027.000	1544.180
65.000	11030.000	1544.180
64.000	11029.000	1544.180
79.000	11028.000	1544.180
73.000	11032.000	1544.310
55.000	11029.000	1544.310
64.000	11030.000	1544.180
65.000	11035.000	1544.310
63.000	11030.000	1544.180
65.000	11033.000	1544.310
64.000	11027.000	1544.310
63.000	11031.000	1544.180
65.000	11033.000	1544.310
63.000	11031.000	1544.180
64.000	11028.000	1544.180
80.000	11034.000	1544.180
64.000	11030.000	1544.310
64.000	11031.000	1544.180
64.000	11034.000	1544.180
64.000	11033.000	1544.310
64.000	11029.000	1544.310
64.000	11031.000	1544.180
64.000	11027.000	1544.310
64.000	11027.000	1544.180
64.000	11029.000	1544.310
64.000	11026.000	1544.310
64.000	11030.000	1544.310
80.000	11033.000	1544.310
64.000	11034.000	1544.310
64.000	11029.000	1544.310
64.000	11026.000	1544.180
64.000	11023.000	1544.440
64.000	11028.000	1544.310
63.000	11032.000	1544.180
64.000	11031.000	1544.180
64.000	11030.000	1544.180
65.000	11039.000	1544.310
63.000	11045.000	1544.180
64.000	11049.000	1544.310
80.000	11054.000	1544.310
64.000	11062.000	1544.310
64.000	11079.000	1544.180
65.000	11075.000	1544.180
63.000	11082.000	1544.180
64.000	11091.000	1544.180
64.000	11099.000	1544.180
64.000	11111.000	1544.310
65.000	11117.000	1544.180
63.000	11123.000	1544.180
64.000	11135.000	1544.310
64.000	11145.000	1544.180
80.000	11152.000	1544.310
64.000	11161.000	1544.180
63.000	11169.000	1544.310
65.000	11182.000	1544.310
63.000	11187.000	1544.310
65.000	11197.000	1544.180
64.000	11212.000	1544.180
64.000	11219.000	1544.180
64.000	11228.000	1544.180
63.000	11242.000	1544.310
64.000	11250.000	1544.180
65.000	11264.000	1544.310
80.000	11275.000	1544.180
64.000	11289.000	1544.310
64.000	11299.000	1544.310
64.000	11315.000	1544.310
63.000	11325.000	1544.180
64.000	11339.000	1544.310
65.000	11354.000	1544.310
63.000	11371.000	1544.310
64.000	11385.000	1544.310
64.000	11400.000	1544.180
64.000	11415.000	1544.310
64.000	11438.000	1544.180
64.000	11450.000	1544.180
80.000	11469.000	1544.180
64.000	11487.000	1544.180
64.000	11507.000	1544.310
64.000	11520.000	1544.310
64.000	11540.000	1544.310
64.000	11560.000	1544.180
63.000	11587.000	1544.180
65.000	11600.000	1544.180
64.000	11627.000	1544.180
64.000	11653.000	1544.180
64.000	11673.000	1544.310
63.000	11704.000	1544.310
81.000	11729.000	1544.310
63.000	11752.000	1544.180
64.000	11776.000	1544.310
65.000	11805.000	1544.310
64.000	11835.000	1544.180
63.000	11865.000	1544.180
64.000	11898.000	1544.310
65.000	11928.000	1544.180
64.000	11960.000	1544.180
63.000	11994.000	1544.180
65.000	12028.000	1544.180
63.000	12067.000	1544.310
80.000	12105.000	1544.310
64.000	12145.000	1544.310
64.000	12185.000	1544.310
64.000	12222.000	1544.310
64.000	12261.000	1544.180
64.000	12302.000	1544.180
64.000	12349.000	1544.180
64.000	12395.000	1544.180
63.000	12444.000	1544.310
65.000	12495.000	1544.180
64.000	12546.000	1544.310
64.000	12602.000	1544.180
80.000	12655.000	1544.180
63.000	12715.000	1544.180
65.000	12776.000	1544.180
64.000	12836.000	1544.180
64.000	12901.000	1544.180
64.000	12971.000	1544.310
64.000	13033.000	1544.440
64.000	13103.000	1544.570
64.000	13187.000	1544.820
64.000	13261.000	1545.080
63.000	13345.000	1545.330
65.000	13428.000	1545.840
79.000	13527.000	1546.350
65.000	13580.000	1546.480
63.000	13485.000	1545.970
64.000	13384.000	1545.460
64.000	13301.000	1545.200
65.000	13216.000	1544.820
63.000	13142.000	1544.570
64.000	13072.000	1544.570
64.000	13009.000	1544.310
65.000	12938.000	1544.310
63.000	12872.000	1544.310
64.000	12811.000	1544.310
80.000	12751.000	1544.310
64.000	12691.000	1544.310
64.000	12631.000	1544.310
64.000	12579.000	1544.310
63.000	12527.000	1544.180
65.000	12475.000	1544.310
64.000	12422.000	1544.310
63.000	12376.000	1544.180
65.000	12335.000	1544.180
63.000	12288.000	1544.180
65.000	12245.000	1544.180
64.000	12202.000	1544.310
79.000	12169.000	1544.310
64.000	12126.000	1544.310
64.000	12087.000	1544.180
64.000	12052.000	1544.310
64.000	12013.000	1544.180
64.000	11985.000	1544.180
64.000	11944.000	1544.180
64.000	11914.000	1544.310
64.000	11887.000	1544.180
64.000	11852.000	1544.180
64.000	11829.000	1544.180
64.000	11795.000	1544.180
80.000	11764.000	1544.180
64.000	11744.000	1544.310
64.000	11712.000	1544.180
64.000	11693.000	1544.180
64.000	11662.000	1544.180
64.000	11645.000	1544.180
64.000	11618.000	1544.180
64.000	11597.000	1544.310
64.000	11576.000	1544.180
64.000	11550.000	1544.180
63.000	11533.000	1544.180
65.000	11513.000	1544.180
79.000	11494.000	1544.180
64.000	11475.000	1544.310
64.000	11459.000	1544.180
65.000	11447.000	1544.180
63.000	11426.000	1544.310
65.000	11414.000	1544.180
63.000	11394.000	1544.180
65.000	11377.000	1544.180
63.000	11364.000	1544.180
64.000	11345.000	1544.180
65.000	11330.000	1544.180
63.000	11325.000	1544.180
80.000	11309.000	1544.180
65.000	11299.000	1544.310
64.000	11279.000	1544.310
63.000	11270.000	1544.180
65.000	11262.000	1544.310
63.000	11246.000	1544.180
65.000	11241.000	1544.180
63.000	11223.000	1544.180
64.000	11214.000	1544.180
64.000	11197.000	1544.180
64.000	11195.000	1544.050
63.000	11180.000	1544.310
81.000	11171.000	1544.310
64.000	11168.000	1544.180
64.000	11152.000	1544.310
64.000	11149.000	1544.310
63.000	11135.000	1544.180
64.000	11130.000	1544.310
64.000	11121.000	1544.310
65.000	11115.000	1544.180
63.000	11105.000	1544.050
64.000	11101.000	1544.180
65.000	11087.000	1544.310
64.000	11082.000	1544.180
80.000	11080.000	1544.310
63.000	11065.000	1544.180
64.000	11063.000	1544.310
65.000	11055.000	1544.310
63.000	11046.000	1544.310
64.000	11041.000	1544.050
64.000	11031.000	1544.180
64.000	11028.000	1544.180
65.000	11027.000	1544.180
63.000	11031.000	1544.310
64.000	11030.000	1544.310
64.000	11030.000	1544.310
80.000	11033.000	1544.310
64.000	11032.000	1544.180
64.000	11028.000	1544.310
64.000	11032.000	1544.440
64.000	11024.000	1544.310
64.000	11030.000	1544.050
64.000	11038.000	1544.310
63.000	11036.000	1544.180
65.000	11032.000	1544.310
64.000	11029.000	1544.180
63.000	11028.000	1544.180
65.000	11026.000	1544.050
79.000	11030.000	1544.180
64.000	11033.000	1544.180
65.000	11028.000	1544.310
63.000	11029.000	1544.050
65.000	11027.000	1544.180
64.000	11032.000	1544.180
63.000	11028.000	1544.180
64.000	11030.000	1544.180
64.000	11031.000	1544.180
64.000	11031.000	1544.310
64.000	11037.000	1544.310
64.000	11032.000	1544.180
80.000	11031.000	1544.310
64.000	11038.000	1544.180
65.000	11031.000	1544.180
63.000	11030.000	1544.310
64.000	11025.000	1544.180
64.000	11034.000	1544.180
64.000	11028.000	1544.180
64.000	11027.000	1544.310
64.000	11032.000	1544.180
64.000	11034.000	1544.180
64.000	11030.000	1544.310
64.000	11032.000	1544.180
80.000	11032.000	1544.180
64.000	11031.000	1544.180
64.000	11030.000	1544.180
64.000	11029.000	1544.180
63.000	11029.000	1544.310
65.000	11037.000	1544.180
64.000	11030.000	1544.180
63.000	11030.000	1544.180
64.000	11030.000	1544.050
64.000	11026.000	1544.180
64.000	11028.000	1544.310
64.000	11033.000	1544.180
65.000	11028.000	1544.180
79.000	11034.000	1544.050
65.000	11032.000	1544.180
64.000	11038.000	1544.180
63.000	11030.000	1544.180
64.000	11031.000	1544.180
65.000	11028.000	1544.310
63.000	11032.000	1544.310
64.000	11031.000	1544.180
64.000	11037.000	1544.180
64.000	11030.000	1544.310
64.000	11032.000	1544.180
64.000	11030.000	1544.310
80.000	11024.000	1544.180
64.000	11026.000	1544.180
64.000	11028.000	1544.310
64.000	11028.000	1544.180
64.000	11030.000	1544.180
64.000	11028.000	1544.180
64.000	11029.000	1544.180
64.000	11027.000	1544.180
64.000	11029.000	1544.310
63.000	11025.000	1544.180
65.000	11031.000	1544.180
64.000	11031.000	1544.180
80.000	11033.000	1544.180
63.000	11027.000	1544.180
65.000	11035.000	1544.180
63.000	11034.000	1544.180
64.000	11031.000	1544.180
64.000	11026.000	1544.180
64.000	11034.000	1544.180
65.000	11027.000	1544.180
64.000	11025.000	1544.180
64.000	11030.000	1544.180
64.000	11031.000	1544.050
64.000	11024.000	1544.180
79.000	11030.000	1544.180
65.000	11023.000	1544.310
63.000	11032.000	1544.180
65.000	11028.000	1544.180
63.000	11031.000	1544.180
64.000	11032.000	1544.180
63.000	11031.000	1544.310
65.000	11039.000	1544.180
64.000	11046.000	1544.310
64.000	11050.000	1544.180
64.000	11060.000	1544.050
63.000	11062.000	1544.180
81.000	11076.000	1544.180
64.000	11080.000	1544.310
64.000	11088.000	1544.310
64.000	11101.000	1544.180
64.000	11102.000	1544.180
64.000	11113.000	1544.180
63.000	11116.000	1544.180
64.000	11128.000	1544.310
65.000	11136.000	1544.180
64.000	11147.000	1544.180
64.000	11157.000	1544.180
63.000	11166.000	1544.180
80.000	11170.000	1544.050
64.000	11182.000	1544.180
65.000	11194.000	1544.180
64.000	11203.000	1544.180
64.000	11213.000	1544.180
64.000	11221.000	1544.180
63.000	11235.000	1544.180
64.000	11249.000	1544.180
64.000	11259.000	1544.050
64.000	11266.000	1544.180
64.000	11282.000	1544.180
64.000	11298.000	1544.310
79.000	11308.000	1544.310
65.000	11319.000	1544.180
64.000	11332.000	1544.180
64.000	11345.000	1544.310
64.000	11363.000	1544.180
64.000	11380.000	1544.310
64.000	11394.000	1544.050
63.000	11408.000	1544.180
64.000	11424.000	1544.310
64.000	11439.000	1544.180
64.000	11461.000	1544.180
65.000	11472.000	1544.050
80.000	11494.000	1544.180
63.000	11509.000	1544.180
64.000	11532.000	1544.050
64.000	11551.000	1544.310
64.000	11571.000	1544.180
64.000	11596.000	1544.310
65.000	11615.000	1544.180
63.000	11643.000	1544.310
64.000	11663.000	1544.180
64.000	11686.000	1544.180
64.000	11712.000	1544.180
64.000	11733.000	1544.180
80.000	11773.000	1544.310
64.000	11794.000	1544.180
64.000	11819.000	1544.180
64.000	11849.000	1544.180
64.000	11882.000	1544.180
64.000	11918.000	1544.310
64.000	11943.000	1544.180
64.000	11976.000	1544.180
64.000	12007.000	1544.050
64.000	12041.000	1544.180
64.000	12085.000	1544.180
64.000	12128.000	1544.180
79.000	12157.000	1544.180
65.000	12198.000	1544.180
63.000	12238.000	1544.180
64.000	12284.000	1544.180
65.000	12325.000	1544.180
63.000	12371.000	1544.310
64.000	12414.000	1544.180
64.000	12469.000	1544.180
64.000	12522.000	1544.180
64.000	12573.000	1544.180
65.000	12625.000	1544.180
63.000	12681.000	1544.310
80.000	12741.000	1544.310
65.000	12804.000	1544.180
64.000	12864.000	1544.310
64.000	12930.000	1544.180
63.000	12996.000	1544.440
64.000	13065.000	1544.440
64.000	13143.000	1544.570
64.000	13221.000	1544.820
65.000	13302.000	1545.200
63.000	13387.000	1545.590
64.000	13477.000	1545.840
64.000	13587.000	1546.350
80.000	13613.000	1546.480
64.000	13507.000	1545.970
64.000	13411.000	1545.460
64.000	13327.000	1545.200
64.000	13238.000	1544.690
64.000	13165.000	1544.570
64.000	13087.000	1544.310
63.000	13023.000	1544.310
65.000	12957.000	1544.180
63.000	12890.000	1544.310
64.000	12821.000	1544.180
64.000	12760.000	1544.180
81.000	12705.000	1544.180
64.000	12644.000	1544.310
63.000	12589.000	1544.180
65.000	12536.000	1544.180
63.000	12482.000	1544.180
64.000	12433.000	1544.180
64.000	12385.000	1544.180
64.000	12338.000	1544.180
65.000	12295.000	1544.180
63.000	12252.000	1544.180
64.000	12215.000	1544.180
64.000	12174.000	1544.180
81.000	12135.000	1544.050
63.000	12094.000	1544.180
64.000	12063.000	1544.180
64.000	12022.000	1544.180
64.000	11987.000	1544.180
64.000	11956.000	1544.180
64.000	11920.000	1544.180
64.000	11891.000	1544.180
64.000	11861.000	1544.310
64.000	11831.000	1544.180
63.000	11805.000	1544.180
65.000	11777.000	1544.180
80.000	11744.000	1544.310
63.000	11716.000	1544.180
64.000	11697.000	1544.180
64.000	11674.000	1544.180
64.000	11649.000	1544.180
65.000	11619.000	1544.050
64.000	11600.000	1544.180
64.000	11579.000	1544.180
64.000	11562.000	1544.310
64.000	11537.000	1544.180
64.000	11518.000	1544.180
64.000	11497.000	1544.180
63.000	11481.000	1544.050
80.000	11463.000	1544.180
64.000	11448.000	1544.180
64.000	11427.000	1544.180
64.000	11412.000	1544.050
64.000	11395.000	1544.180
64.000	11385.000	1544.180
64.000	11367.000	1544.050
64.000	11350.000	1544.180
64.000	11340.000	1544.050
64.000	11325.000	1544.180
63.000	11310.000	1544.180
65.000	11301.000	1544.180
80.000	11288.000	1544.180
64.000	11273.000	1544.180
64.000	11259.000	1544.180
64.000	11251.000	1544.180
63.000	11239.000	1544.310
64.000	11228.000	1544.310
65.000	11218.000	1544.180
64.000	11205.000	1544.180
63.000	11199.000	1544.180
65.000	11185.000	1544.180
64.000	11175.000	1544.180
63.000	11167.000	1544.180
81.000	11159.000	1544.310
64.000	11148.000	1544.180
63.000	11143.000	1544.180
64.000	11130.000	1544.180
64.000	11124.000	1544.050
64.000	11116.000	1544.180
64.000	11106.000	1544.180
64.000	11095.000	1544.310
64.000	11096.000	1544.050
64.000	11086.000	1544.180
64.000	11074.000	1544.180
64.000	11072.000	1544.180
80.000	11065.000	1544.180
64.000	11058.000	1544.180
64.000	11045.000	1544.180
64.000	11042.000	1544.310
64.000	11036.000	1544.310
64.000	11030.000	1544.180
63.000	11026.000	1544.180
65.000	11033.000	1544.180
64.000	11036.000	1544.180
64.000	11031.000	1544.050
63.000	11029.000	1544.310
65.000	11033.000	1544.180
79.000	11030.000	1544.180
65.000	11029.000	1544.180
64.000	11031.000	1544.050
64.000	11030.000	1544.050
63.000	11032.000	1544.180
64.000	11033.000	1544.180
65.000	11032.000	1544.050
64.000	11028.000	1544.180
63.000	11037.000	1544.180
65.000	11034.000	1544.180
63.000	11031.000	1544.180
64.000	11030.000	1544.050
81.000	11033.000	1544.050
63.000	11029.000	1544.310
65.000	11037.000	1544.180
63.000	11031.000	1544.180
64.000	11034.000	1544.180
64.000	11033.000	1544.180
63.000	11031.000	1544.180
65.000	11033.000	1544.310
64.000	11029.000	1544.180
63.000	11033.000	1544.180
65.000	11035.000	1544.180
64.000	11032.000	1544.180
79.000	11031.000	1544.310
65.000	11026.000	1544.050
63.000	11035.000	1544.310
64.000	11028.000	1544.050
64.000	11035.000	1544.180
64.000	11032.000	1544.180
64.000	11031.000	1544.050
64.000	11030.000	1544.180
64.000	11026.000	1544.050
65.000	11035.000	1544.050
63.000	11029.000	1544.180
64.000	11032.000	1544.310
80.000	11026.000	1544.310
64.000	11032.000	1544.180
64.000	11032.000	1544.180
64.000	11028.000	1544.180
64.000	11029.000	1544.180
64.000	11030.000	1544.180
65.000	11030.000	1544.180
63.000	11031.000	1544.180
64.000	11029.000	1544.050
64.000	11033.000	1544.180
64.000	11029.000	1544.180
64.000	11036.000	1544.310
80.000	11034.000	1544.180
63.000	11031.000	1544.050
65.000	11038.000	1544.180
64.000	11027.000	1544.050
64.000	11032.000	1544.180
63.000	11031.000	1544.180
65.000	11035.000	1544.180
63.000	11032.000	1544.180
64.000	11031.000	1544.180
65.000	11025.000	1544.180
64.000	11032.000	1544.310
64.000	11032.000	1544.050
79.000	11036.000	1544.050
64.000	11036.000	1544.310
65.000	11032.000	1544.180
63.000	11031.000	1544.440
65.000	11034.000	1544.050
64.000	11031.000	1544.180
63.000	11031.000	1544.180
64.000	11031.000	1544.180
64.000	11034.000	1544.050
64.000	11035.000	1544.180
64.000	11031.000	1544.050
64.000	11032.000	1544.180
80.000	11038.000	1544.050
64.000	11032.000	1544.180
64.000	11032.000	1544.180
64.000	11030.000	1544.180
64.000	11030.000	1544.180
64.000	11033.000	1544.180
64.000	11033.000	1544.050
64.000	11029.000	1544.180
64.000	11029.000	1544.180
64.000	11033.000	1544.050
64.000	11037.000	1544.050
64.000	11032.000	1544.050
80.000	11031.000	1544.180
64.000	11031.000	1544.180
64.000	11030.000	1544.180
64.000	11032.000	1544.180
63.000	11031.000	1544.180
64.000	11032.000	1544.180
64.000	11034.000	1544.180
64.000	11038.000	1544.180
64.000	11053.000	1544.180
65.000	11059.000	1544.050
63.000	11071.000	1544.050
64.000	11074.000	1544.180
81.000	11083.000	1544.180
63.000	11083.000	1544.050
64.000	11093.000	1544.050
64.000	11105.000	1544.050
64.000	11109.000	1544.050
64.000	11119.000	1544.180
64.000	11127.000	1544.180
64.000	11134.000	1544.180
63.000	11142.000	1544.180
64.000	11156.000	1544.050
65.000	11159.000	1544.050
63.000	11176.000	1544.180
81.000	11180.000	1544.180
64.000	11191.000	1544.180
64.000	11204.000	1544.050
64.000	11212.000	1544.050
64.000	11220.000	1544.310
64.000	11231.000	1544.180
63.000	11245.000	1544.050
64.000	11255.000	1544.180
64.000	11267.000	1544.180
65.000	11277.000	1544.180
64.000	11287.000	1544.180
63.000	11299.000	1544.180
80.000	11319.000	1544.180
65.000	11330.000	1544.180
63.000	11345.000	1544.310
64.000	11356.000	1544.310
64.000	11370.000	1544.180
65.000	11385.000	1544.180
64.000	11405.000	1544.180
64.000	11417.000	1544.050
63.000	11434.000	1544.310
64.000	11451.000	1544.180
65.000	11467.000	1544.180
64.000	11490.000	1544.180
79.000	11505.000	1544.180
64.000	11521.000	1544.180
64.000	11541.000	1544.310
64.000	11559.000	1544.180
64.000	11587.000	1544.180
64.000	11604.000	1544.050
64.000	11634.000	1544.180
63.000	11660.000	1544.180
65.000	11681.000	1544.050
64.000	11705.000	1544.180
63.000	11730.000	1544.180
65.000	11757.000	1544.050
63.000	11785.000	1544.050
81.000	11813.000	1544.050
63.000	11841.000	1544.180
64.000	11873.000	1544.180
64.000	11898.000	1544.180
65.000	11938.000	1544.180
63.000	11963.000	1544.180
64.000	11996.000	1544.180
64.000	12033.000	1544.050
64.000	12068.000	1544.180
65.000	12108.000	1544.180
64.000	12144.000	1544.180
63.000	12184.000	1544.180
80.000	12224.000	1544.050
64.000	12270.000	1544.180
64.000	12307.000	1544.050
64.000	12351.000	1544.180
65.000	12398.000	1544.180
63.000	12446.000	1544.050
64.000	12501.000	1544.180
64.000	12550.000	1544.180
63.000	12600.000	1544.180
65.000	12659.000	1544.180
64.000	12720.000	1544.180
63.000	12777.000	1544.180
81.000	12839.000	1544.180
64.000	12897.000	1544.050
64.000	12970.000	1544.180
63.000	13039.000	1544.310
65.000	13111.000	1544.440
64.000	13187.000	1544.820
64.000	13267.000	1544.950
63.000	13348.000	1545.200
64.000	13435.000	1545.720
65.000	13537.000	1546.230
63.000	13614.000	1546.480
65.000	13538.000	1546.100
80.000	13436.000	1545.590
64.000	13347.000	1545.200
64.000	13264.000	1544.820
64.000	13199.000	1544.570
63.000	13115.000	1544.440
64.000	13043.000	1544.310
65.000	12981.000	1544.180
64.000	12908.000	1544.180
63.000	12848.000	1544.050
64.000	12784.000	1544.310
64.000	12721.000	1544.180
64.000	12666.000	1544.180
80.000	12605.000	1544.180
64.000	12554.000	1544.180
64.000	12507.000	1544.180
64.000	12452.000	1544.180
64.000	12401.000	1544.050
64.000	12361.000	1544.180
63.000	12312.000	1544.180
65.000	12270.000	1544.180
64.000	12225.000	1544.180
63.000	12190.000	1544.180
64.000	12151.000	1544.180
64.000	12111.000	1544.180
81.000	12068.000	1544.180
63.000	12036.000	1544.180
64.000	11997.000	1544.180
65.000	11965.000	1544.180
64.000	11930.000	1544.180
64.000	11905.000	1544.050
63.000	11872.000	1544.180
64.000	11838.000	1544.310
65.000	11811.000	1544.050
63.000	11787.000	1544.180
64.000	11752.000	1544.180
64.000	11734.000	1544.180
80.000	11705.000	1544.050
64.000	11678.000	1544.180
64.000	11654.000	1544.180
65.000	11632.000	1544.180
63.000	11608.000	1544.180
64.000	11591.000	1544.050
64.000	11558.000	1544.050
64.000	11540.000	1544.050
63.000	11520.000	1544.050
65.000	11504.000	1544.050
63.000	11482.000	1544.180
65.000	11468.000	1544.050
79.000	11453.000	1544.180
64.000	11431.000	1544.180
64.000	11419.000	1544.180
64.000	11403.000	1544.050
64.000	11387.000	1544.050
65.000	11372.000	1544.050
64.000	11351.000	1544.180
63.000	11341.000	1544.180
64.000	11327.000	1544.180
65.000	11318.000	1544.180
63.000	11304.000	1544.180
64.000	11291.000	1544.050
80.000	11278.000	1544.050
64.000	11267.000	1544.180
64.000	11255.000	1544.180
64.000	11242.000	1544.180
64.000	11234.000	1544.180
64.000	11219.000	1544.050
64.000	11210.000	1544.050
64.000	11202.000	1544.050
64.000	11196.000	1544.050
64.000	11181.000	1544.050
64.000	11174.000	1544.050
64.000	11169.000	1544.180
79.000	11157.000	1544.180
65.000	11148.000	1544.180
64.000	11139.000	1544.180
64.000	11124.000	1544.180
64.000	11125.000	1544.180
63.000	11112.000	1544.180
65.000	11100.000	1544.050
63.000	11100.000	1544.180
64.000	11088.000	1544.050
65.000	11079.000	1544.050
64.000	11068.000	1544.050
63.000	11067.000	1544.180
80.000	11056.000	1544.180
64.000	11058.000	1544.310
64.000	11043.000	1544.180
65.000	11037.000	1544.050
64.000	11034.000	1544.050
63.000	11032.000	1544.050
64.000	11029.000	1544.180
64.000	11031.000	1544.050
64.000	11030.000	1544.050
64.000	11026.000	1544.050
64.000	11030.000	1544.180
64.000	11030.000	1544.050
80.000	11034.000	1544.050
64.000	11035.000	1544.050
64.000	11031.000	1544.180
64.000	11034.000	1544.050
64.000	11030.000	1544.050
64.000	11034.000	1544.180
64.000	11033.000	1544.050
64.000	11029.000	1544.180
63.000	11035.000	1544.050
65.000	11035.000	1544.180
63.000	11032.000	1544.050
64.000	11031.000	1544.050
81.000	11028.000	1544.180
64.000	11034.000	1544.180
64.000	11036.000	1543.930
64.000	11030.000	1544.180
63.000	11029.000	1544.050
65.000	11030.000	1544.180
64.000	11032.000	1544.050
63.000	11029.000	1544.050
64.000	11035.000	1544.180
65.000	11033.000	1544.050
64.000	11026.000	1544.180
63.000	11036.000	1544.180
80.000	11031.000	1544.050
64.000	11031.000	1544.050
64.000	11033.000	1544.180
64.000	11035.000	1544.180
64.000	11031.000	1544.180
64.000	11030.000	1544.050
64.000	11029.000	1544.180
64.000	11031.000	1544.180
64.000	11031.000	1544.180
64.000	11028.000	1544.180
64.000	11037.000	1544.050
64.000	11029.000	1544.180
80.000	11030.000	1544.180
64.000	11032.000	1544.050
64.000	11028.000	1544.050
63.000	11032.000	1544.180
65.000	11028.000	1544.180
64.000	11029.000	1544.180
64.000	11026.000	1544.180
64.000	11033.000	1544.050
64.000	11034.000	1544.050
63.000	11030.000	1544.180
64.000	11031.000	1544.050
64.000	11029.000	1544.180
64.000	11025.000	1544.050
80.000	11027.000	1544.180
64.000	11028.000	1544.180
64.000	11030.000	1544.050
64.000	11025.000	1544.050
65.000	11033.000	1544.050
63.000	11029.000	1544.180
64.000	11036.000	1544.180
64.000	11035.000	1544.050
64.000	11028.000	1544.050
64.000	11035.000	1544.180
64.000	11027.000	1544.180
64.000	11031.000	1544.050
80.000	11033.000	1544.050
64.000	11029.000	1544.180
64.000	11031.000	1544.180
64.000	11032.000	1544.050
64.000	11029.000	1544.050
63.000	11030.000	1544.050
65.000	11033.000	1544.180
64.000	11031.000	1544.180
64.000	11036.000	1544.180
63.000	11033.000	1544.180
65.000	11033.000	1544.050
64.000	11031.000	1544.180
79.000	11032.000	1544.050
65.000	11032.000	1544.050
63.000	11032.000	1544.050
64.000	11030.000	1544.180
64.000	11032.000	1544.180
64.000	11031.000	1544.180
64.000	11032.000	1544.180
64.000	11027.000	1544.180
65.000	11034.000	1544.050
63.000	11031.000	1544.180
64.000	11032.000	1544.050
64.000	11028.000	1544.180
80.000	11030.000	1544.050
64.000	11028.000	1544.180
64.000	11028.000	1544.050
64.000	11030.000	1544.180
64.000	11035.000	1544.050
64.000	11039.000	1544.180
63.000	11051.000	1544.180
65.000	11063.000	1544.050
64.000	11060.000	1544.180
64.000	11076.000	1544.050
64.000	11076.000	1544.050
64.000	11085.000	1544.050
80.000	11094.000	1544.180
63.000	11107.000	1544.180
64.000	11107.000	1544.050
64.000	11117.000	1544.050
64.000	11130.000	1544.180
64.000	11123.000	1544.180
65.000	11145.000	1544.180
63.000	11154.000	1544.180
64.000	11158.000	1544.180
64.000	11173.000	1544.050
64.000	11179.000	1544.180
65.000	11189.000	1544.180
80.000	11194.000	1544.180
63.000	11209.000	1544.050
64.000	11215.000	1544.050
64.000	11224.000	1544.050
64.000	11237.000	1544.180
64.000	11251.000	1544.180
64.000	11264.000	1544.180
64.000	11271.000	1544.180
64.000	11290.000	1544.050
64.000	11300.000	1544.180
64.000	11312.000	1544.310
64.000	11321.000	1544.050
80.000	11338.000	1544.050
64.000	11354.000	1544.050
64.000	11368.000	1544.050
63.000	11380.000	1544.050
64.000	11397.000	1544.050
65.000	11417.000	1544.050
64.000	11432.000	1544.050
64.000	11445.000	1544.180
64.000	11462.000	1544.180
63.000	11481.000	1544.180
65.000	11501.000	1544.180
63.000	11519.000	1544.180
81.000	11534.000	1544.050
63.000	11554.000	1544.050
65.000	11577.000	1544.180
63.000	11604.000	1544.050
64.000	11624.000	1544.180
65.000	11650.000	1544.050
63.000	11674.000	1544.180
64.000	11694.000	1544.050
65.000	11720.000	1544.050
64.000	11752.000	1544.180
63.000	11774.000	1544.180
64.000	11798.000	1544.180
80.000	11823.000	1544.050
64.000	11856.000	1544.050
64.000	11884.000	1544.050
64.000	11923.000	1544.180
64.000	11957.000	1544.180
64.000	11986.000	1544.050
64.000	12024.000	1543.930
64.000	12056.000	1544.180
65.000	12099.000	1544.050
63.000	12131.000	1544.050
63.000	12173.000	1544.050
64.000	12208.000	1543.930
80.000	12256.000	1544.050
65.000	12293.000	1544.050
64.000	12338.000	1544.050
64.000	12386.000	1544.050
64.000	12434.000	1544.050
64.000	12483.000	1544.180
63.000	12533.000	1544.050
65.000	12583.000	1544.050
63.000	12636.000	1544.050
64.000	12699.000	1544.180
64.000	12759.000	1544.180
65.000	12818.000	1544.050
79.000	12883.000	1544.180
64.000	12951.000	1544.180
64.000	13018.000	1544.180
64.000	13082.000	1544.440
64.000	13162.000	1544.440
64.000	13240.000	1544.820
65.000	13322.000	1545.200
63.000	13412.000	1545.590
64.000	13510.000	1545.970
63.000	13588.000	1546.350
65.000	13511.000	1545.970
64.000	13423.000	1545.590
80.000	13337.000	1545.200
64.000	13245.000	1544.690
64.000	13175.000	1544.570
64.000	13094.000	1544.440
63.000	13032.000	1544.180
65.000	12965.000	1544.050
63.000	12895.000	1544.050
64.000	12831.000	1544.180
64.000	12771.000	1544.180
65.000	12707.000	1544.050
64.000	12651.000	1544.180
64.000	12595.000	1544.050
79.000	12546.000	1544.180
64.000	12491.000	1544.180
65.000	12440.000	1544.050
64.000	12393.000	1544.050
63.000	12344.000	1544.180
64.000	12302.000	1544.050
64.000	12258.000	1544.050
64.000	12219.000	1544.050
65.000	12177.000	1544.180
63.000	12138.000	1544.050
64.000	12103.000	1544.180
64.000	12062.000	1544.050
80.000	12029.000	1544.050
64.000	11988.000	1544.180
64.000	11962.000	1543.930
64.000	11922.000	1544.180
64.000	11891.000	1544.180
64.000	11859.000	1544.050
64.000	11837.000	1544.180
64.000	11810.000	1544.180
64.000	11772.000	1544.180
64.000	11745.000	1544.050
64.000	11723.000	1544.050
64.000	11700.000	1544.050
80.000	11670.000	1543.930
64.000	11652.000	1544.050
63.000	11630.000	1544.180
65.000	11604.000	1544.180
63.000	11579.000	1544.180
65.000	11567.000	1544.050
64.000	11540.000	1544.050
64.000	11520.000	1544.180
63.000	11503.000	1544.050
65.000	11484.000	1544.050
63.000	11467.000	1544.050
64.000	11444.000	1544.180
80.000	11430.000	1544.050
64.000	11415.000	1544.050
64.000	11398.000	1544.180
64.000	11384.000	1544.050
64.000	11363.000	1544.050
64.000	11352.000	1544.180
64.000	11341.000	1544.050
64.000	11320.000	1544.050
64.000	11316.000	1544.050
64.000	11296.000	1544.050
63.000	11290.000	1544.050
64.000	11279.000	1544.050
65.000	11264.000	1544.180
80.000	11252.000	1544.050
63.000	11237.000	1544.050
65.000	11230.000	1544.050
63.000	11217.000	1544.050
65.000	11204.000	1544.180
64.000	11200.000	1544.050
64.000	11186.000	1544.180
64.000	11176.000	1544.180
63.000	11172.000	1544.050
65.000	11160.000	1544.050
64.000	11148.000	1544.050
64.000	11140.000	1544.050
79.000	11133.000	1544.180
64.000	11127.000	1544.050
64.000	11117.000	1544.050
64.000	11105.000	1544.050
64.000	11102.000	1544.050
64.000	11095.000	1544.180
64.000	11083.000	1544.050
64.000	11078.000	1544.180
64.000	11079.000	1544.050
64.000	11061.000	1544.050
64.000	11058.000	1544.050
64.000	11043.000	1544.050
80.000	11044.000	1544.180
64.000	11043.000	1544.180
63.000	11028.000	1544.050
65.000	11025.000	1544.050
64.000	11034.000	1544.050
64.000	11032.000	1544.050
64.000	11032.000	1544.180
64.000	11030.000	1544.180
64.000	11031.000	1544.180
63.000	11032.000	1544.050
64.000	11034.000	1544.050
65.000	11025.000	1544.050
79.000	11027.000	1544.050
65.000	11025.000	1544.180
64.000	11032.000	1544.050
63.000	11034.000	1544.180
65.000	11035.000	1544.180
64.000	11033.000	1544.180
63.000	11028.000	1544.180
64.000	11030.000	1544.050
64.000	11029.000	1544.050
64.000	11031.000	1544.050
64.000	11032.000	1544.050
64.000	11028.000	1544.180
80.000	11032.000	1544.180
63.000	11033.000	1544.180
65.000	11033.000	1544.180
64.000	11032.000	1544.050
64.000	11030.000	1544.180
64.000	11030.000	1544.180
64.000	11033.000	1543.930
64.000	11032.000	1544.050
63.000	11033.000	1544.050
64.000	11029.000	1544.050
65.000	11028.000	1544.180
64.000	11030.000	1544.050
80.000	11028.000	1544.050
63.000	11032.000	1544.050
64.000	11031.000	1544.050
64.000	11027.000	1544.050
64.000	11029.000	1544.050
64.000	11034.000	1544.050
65.000	11023.000	1544.180
63.000	11033.000	1544.050
65.000	11031.000	1544.050
64.000	11027.000	1544.050
63.000	11032.000	1544.180
64.000	11027.000	1544.180
80.000	11031.000	1544.050
64.000	11037.000	1544.050
64.000	11030.000	1544.180
64.000	11029.000	1544.050
64.000	11029.000	1544.050
64.000	11029.000	1544.050
64.000	11031.000	1544.050
63.000	11029.000	1544.180
65.000	11035.000	1544.180
64.000	11033.000	1544.050
64.000	11027.000	1544.050
64.000	11027.000	1544.050
80.000	11034.000	1544.050
64.000	11031.000	1544.180
63.000	11033.000	1544.050
64.000	11031.000	1544.180
64.000	11027.000	1544.180
65.000	11030.000	1544.050
64.000	11034.000	1543.930
64.000	11031.000	1544.050
64.000	11031.000	1544.050
64.000	11030.000	1544.050
63.000	11029.000	1544.050
64.000	11031.000	1544.050
80.000	11022.000	1544.180
65.000	11029.000	1544.050
64.000	11033.000	1544.050
63.000	11035.000	1544.180
65.000	11035.000	1544.050
63.000	11026.000	1543.930
64.000	11029.000	1544.050
65.000	11034.000	1544.180
64.000	11030.000	1544.050
63.000	11032.000	1544.050
64.000	11028.000	1544.050
64.000	11034.000	1544.050
80.000	11029.000	1544.050
63.000	11033.000	1544.050
65.000	11026.000	1544.050
63.000	11032.000	1543.930
64.000	11027.000	1544.050
65.000	11029.000	1544.050
64.000	11030.000	1544.180
64.000	11032.000	1544.050
64.000	11034.000	1544.050
63.000	11035.000	1544.050
64.000	11034.000	1544.050
64.000	11031.000	1544.050
80.000	11031.000	1544.050
64.000	11027.000	1544.050
65.000	11034.000	1544.050
63.000	11040.000	1544.180
64.000	11044.000	1544.050
64.000	11052.000	1544.180
64.000	11052.000	1544.050
64.000	11065.000	1544.050
65.000	11070.000	1544.180
64.000	11077.000	1544.050
63.000	11085.000	1544.180
64.000	11092.000	1544.050
81.000	11101.000	1544.050
63.000	11113.000	1544.050
64.000	11116.000	1544.050
64.000	11123.000	1544.050
64.000	11141.000	1544.050
64.000	11145.000	1544.180
64.000	11149.000	1544.050
64.000	11161.000	1544.050
64.000	11171.000	1544.050
64.000	11179.000	1544.050
64.000	11190.000	1544.050
64.000	11200.000	1544.050
80.000	11212.000	1544.050
64.000	11222.000	1544.180
64.000	11233.000	1544.050
63.000	11242.000	1544.050
64.000	11255.000	1544.050
64.000	11261.000	1544.050
64.000	11275.000	1544.050
65.000	11292.000	1544.180
64.000	11299.000	1544.050
64.000	11319.000	1544.050
63.000	11324.000	1544.050
64.000	11344.000	1544.050
80.000	11357.000	1544.050
64.000	11370.000	1544.050
64.000	11385.000	1544.050
65.000	11404.000	1544.050
63.000	11421.000	1544.050
64.000	11434.000	1544.180
64.000	11448.000	1544.050
64.000	11469.000	1544.180
64.000	11485.000	1544.050
64.000	11504.000	1544.050
64.000	11523.000	1544.050
64.000	11541.000	1544.050
80.000	11564.000	1544.050
64.000	11582.000	1544.050
64.000	11606.000	1544.050
64.000	11628.000	1544.180
64.000	11655.000	1544.180
63.000	11683.000	1544.050
65.000	11705.000	1544.050
63.000	11728.000	1543.930
65.000	11749.000	1544.050
64.000	11780.000	1544.050
64.000	11812.000	1544.050
63.000	11835.000	1544.050
81.000	11871.000	1544.050
63.000	11902.000	1544.050
65.000	11933.000	1544.050
63.000	11963.000	1544.180
65.000	12005.000	1543.930
64.000	12030.000	1544.050
64.000	12073.000	1544.050
64.000	12107.000	1544.050
63.000	12149.000	1544.050
64.000	12185.000	1544.050
64.000	12227.000	1544.050
64.000	12267.000	1544.050
81.000	12306.000	1544.050
63.000	12355.000	1544.050
64.000	12400.000	1544.050
64.000	12445.000	1544.180
64.000	12500.000	1544.050
64.000	12551.000	1544.050
64.000	12605.000	1544.050
64.000	12661.000	1544.050
64.000	12719.000	1544.050
64.000	12774.000	1544.050
64.000	12837.000	1544.050
64.000	12902.000	1544.050
64.000	12969.000	1544.180
80.000	13036.000	1544.310
63.000	13105.000	1544.310
65.000	13186.000	1544.570
64.000	13264.000	1544.690
64.000	13352.000	1545.200
64.000	13439.000	1545.720
64.000	13532.000	1546.100
64.000	13605.000	1546.350
64.000	13510.000	1545.970
64.000	13410.000	1545.460
63.000	13326.000	1545.080
64.000	13244.000	1544.690
80.000	13162.000	1544.440
64.000	13090.000	1544.310
65.000	13025.000	1544.310
63.000	12958.000	1544.050
64.000	12884.000	1544.050
64.000	12826.000	1544.050
64.000	12762.000	1543.930
64.000	12707.000	1544.180
64.000	12655.000	1544.050
64.000	12593.000	1544.050
64.000	12542.000	1544.050
64.000	12486.000	1544.050
80.000	12437.000	1544.050
64.000	12387.000	1544.050
63.000	12341.000	1543.930
65.000	12294.000	1544.050
64.000	12255.000	1544.050
64.000	12215.000	1544.050
64.000	12175.000	1544.050
64.000	12136.000	1544.050
64.000	12097.000	1544.050
64.000	12064.000	1544.050
64.000	12031.000	1544.180
63.000	11985.000	1544.050
81.000	11956.000	1544.050
63.000	11917.000	1544.050
65.000	11891.000	1544.180
64.000	11863.000	1544.050
63.000	11833.000	1544.180
65.000	11797.000	1544.050
64.000	11771.000	1544.050
63.000	11743.000	1544.050
64.000	11718.000	1544.050
64.000	11699.000	1544.050
64.000	11674.000	1544.050
64.000	11649.000	1543.930
80.000	11624.000	1544.050
64.000	11602.000	1544.050
63.000	11577.000	1543.930
65.000	11559.000	1544.050
64.000	11540.000	1544.050
64.000	11514.000	1544.050
64.000	11500.000	1544.050
64.000	11480.000	1543.930
64.000	11461.000	1544.050
64.000	11444.000	1544.180
64.000	11426.000	1544.050
64.000	11413.000	1544.180
79.000	11396.000	1544.050
65.000	11384.000	1544.180
63.000	11368.000	1544.050
64.000	11352.000	1544.050
65.000	11336.000	1543.930
63.000	11323.000	1544.050
64.000	11305.000	1544.180
64.000	11297.000	1544.050
64.000	11289.000	1544.050
64.000	11268.000	1544.050
65.000	11261.000	1544.050
64.000	11253.000	1544.050
79.000	11240.000	1544.050
64.000	11227.000	1544.050
65.000	11216.000	1544.050
63.000	11204.000	1544.050
64.000	11199.000	1544.050
64.000	11184.000	1544.050
64.000	11177.000	1544.050
64.000	11171.000	1544.050
64.000	11157.000	1544.050
64.000	11143.000	1544.050
64.000	11139.000	1544.050
63.000	11128.000	1544.050
81.000	11129.000	1544.180
64.000	11119.000	1544.050
63.000	11109.000	1544.180
65.000	11100.000	1544.180
64.000	11089.000	1544.050
64.000	11083.000	1544.050
63.000	11074.000	1544.050
65.000	11065.000	1544.050
64.000	11059.000	1544.050
63.000	11057.000	1544.050
64.000	11049.000	1543.930
65.000	11038.000	1544.050
79.000	11033.000	1544.050
64.000	11026.000	1544.050
64.000	11023.000	1544.050
64.000	11029.000	1544.050
64.000	11030.000	1544.050
64.000	11033.000	1544.180
64.000	11028.000	1544.050
65.000	11026.000	1544.180
63.000	11026.000	1544.050
64.000	11028.000	1544.050
64.000	11029.000	1544.050
64.000	11030.000	1544.050
80.000	11029.000	1544.050
64.000	11035.000	1544.050
64.000	11030.000	1543.930
64.000	11031.000	1544.050
63.000	11028.000	1544.050
65.000	11028.000	1544.050
63.000	11027.000	1543.930
64.000	11023.000	1543.930
65.000	11030.000	1544.050
64.000	11033.000	1544.050
63.000	11037.000	1544.050
65.000	11029.000	1544.050
79.000	11026.000	1543.930
64.000	11026.000	1544.050
65.000	11019.000	1544.050
64.000	11030.000	1544.050
63.000	11029.000	1544.050
66.000	11033.000	1544.050
63.000	11031.000	1544.050
63.000	11033.000	1544.050
64.000	11032.000	1544.050
64.000	11026.000	1544.050
64.000	11028.000	1544.050
65.000	11028.000	1544.050
79.000	11029.000	1544.050
64.000	11026.000	1544.050
64.000	11029.000	1544.180
64.000	11027.000	1544.050
64.000	11031.000	1544.180
64.000	11031.000	1544.050
64.000	11024.000	1544.050
64.000	11031.000	1544.050
64.000	11032.000	1543.930
64.000	11030.000	1544.050
64.000	11031.000	1544.050
64.000	11030.000	1544.050
80.000	11030.000	1544.050
64.000	11026.000	1543.930
64.000	11031.000	1543.930
64.000	11029.000	1544.050
64.000	11024.000	1544.180
64.000	11032.000	1544.180
64.000	11026.000	1544.050
64.000	11027.000	1544.050
64.000	11029.000	1544.050
64.000	11039.000	1544.050
64.000	11030.000	1544.050
64.000	11024.000	1544.050
80.000	11025.000	1544.050
64.000	11029.000	1544.050
64.000	11031.000	1543.930
63.000	11027.000	1544.050
64.000	11028.000	1544.050
64.000	11031.000	1543.930
64.000	11027.000	1544.050
64.000	11028.000	1544.050
64.000	11031.000	1544.050
64.000	11030.000	1544.050
64.000	11028.000	1543.930
64.000	11025.000	1543.930
64.000	11028.000	1544.050
80.000	11034.000	1544.050
64.000	11033.000	1544.050
64.000	11027.000	1544.050
64.000	11026.000	1544.180
64.000	11031.000	1544.050
64.000	11026.000	1544.180
64.000	11031.000	1544.050
64.000	11035.000	1543.930
63.000	11035.000	1544.050
65.000	11036.000	1543.930
64.000	11026.000	1544.050
63.000	11032.000	1544.050
81.000	11028.000	1544.050
63.000	11028.000	1544.050
65.000	11028.000	1544.050
63.000	11031.000	1543.930
65.000	11029.000	1543.930
63.000	11032.000	1544.050
64.000	11030.000	1544.180
64.000	11035.000	1544.050
65.000	11031.000	1544.050
64.000	11028.000	1544.050
63.000	11025.000	1544.050
64.000	11028.000	1544.050
80.000	11034.000	1544.050
64.000	11036.000	1544.050
64.000	11041.000	1544.050
64.000	11049.000	1543.930
65.000	11058.000	1544.050
63.000	11064.000	1544.180
64.000	11072.000	1543.930
64.000	11075.000	1543.930
64.000	11081.000	1544.050
64.000	11091.000	1544.050
64.000	11103.000	1544.050
63.000	11111.000	1544.050
81.000	11115.000	1543.930
63.000	11124.000	1543.930
65.000	11133.000	1543.930
64.000	11143.000	1544.050
64.000	11149.000	1544.050
64.000	11167.000	1544.050
63.000	11171.000	1543.930
64.000	11178.000	1543.930
65.000	11187.000	1543.930
63.000	11200.000	1543.930
65.000	11210.000	1544.050
63.000	11210.000	1544.050
80.000	11232.000	1544.050
64.000	11237.000	1544.050
65.000	11251.000	1544.050
63.000	11268.000	1544.050
64.000	11273.000	1544.050
64.000	11289.000	1544.050
64.000	11306.000	1543.930
64.000	11312.000	1544.050
64.000	11331.000	1544.050
65.000	11343.000	1544.050
63.000	11355.000	1543.930
64.000	11371.000	1544.050
80.000	11387.000	1544.050
64.000	11404.000	1544.050
64.000	11420.000	1544.050
64.000	11436.000	1544.050
64.000	11451.000	1544.050
64.000	11468.000	1544.050
63.000	11486.000	1544.050
65.000	11506.000	1544.050
64.000	11526.000	1544.050
64.000	11540.000	1544.050
63.000	11566.000	1543.930
65.000	11585.000	1544.050
80.000	11607.000	1544.050
63.000	11631.000	1544.050
64.000	11651.000	1544.050
65.000	11677.000	1544.050
64.000	11701.000	1543.930
64.000	11730.000	1543.930
63.000	11754.000	1544.050
64.000	11781.000	1543.930
64.000	11806.000	1544.050
65.000	11836.000	1543.930
63.000	11864.000	1544.050
64.000	11900.000	1544.050
80.000	11932.000	1544.050
64.000	11962.000	1544.050
64.000	11991.000	1544.050
64.000	12033.000	1543.930
64.000	12069.000	1543.930
64.000	12108.000	1544.050
64.000	12144.000	1544.050
64.000	12182.000	1544.050
64.000	12220.000	1543.930
64.000	12263.000	1544.050
64.000	12305.000	1544.050
64.000	12353.000	1544.180
80.000	12394.000	1544.050
63.000	12444.000	1544.180
64.000	12499.000	1544.050
65.000	12551.000	1544.050
63.000	12605.000	1543.930
64.000	12661.000	1544.050
64.000	12716.000	1544.050
64.000	12777.000	1544.050
65.000	12836.000	1544.050
64.000	12901.000	1544.050
63.000	12974.000	1544.050
64.000	13034.000	1544.180
80.000	13112.000	1544.310
64.000	13182.000	1544.440
64.000	13261.000	1544.950
64.000	13351.000	1545.200
64.000	13436.000	1545.460
64.000	13543.000	1546.100
64.000	13597.000	1546.350
64.000	13506.000	1545.840
64.000	13410.000	1545.330
64.000	13319.000	1544.950
64.000	13237.000	1544.570
64.000	13163.000	1544.310
80.000	13085.000	1544.310
64.000	13022.000	1544.180
64.000	12957.000	1544.050
64.000	12884.000	1543.930
64.000	12826.000	1543.930
64.000	12763.000	1544.050
64.000	12702.000	1544.050
64.000	12644.000	1544.050
64.000	12587.000	1544.050
64.000	12534.000	1544.050
63.000	12489.000	1543.930
64.000	12433.000	1543.930
80.000	12388.000	1544.050
65.000	12337.000	1544.050
64.000	12296.000	1543.930
63.000	12252.000	1544.050
64.000	12212.000	1544.050
64.000	12171.000	1544.050
65.000	12135.000	1543.930
64.000	12097.000	1543.930
64.000	12054.000	1544.050
64.000	12017.000	1544.180
64.000	11985.000	1544.050
63.000	11951.000	1544.050
80.000	11921.000	1543.930
64.000	11892.000	1543.930
64.000	11861.000	1544.050
64.000	11827.000	1544.050
64.000	11798.000	1544.050
64.000	11776.000	1543.930
64.000	11744.000	1543.930
64.000	11724.000	1543.930
64.000	11694.000	1544.050
63.000	11670.000	1544.050
65.000	11647.000	1543.930
63.000	11625.000	1543.930
80.000	11600.000	1544.050
64.000	11578.000	1543.930
64.000	11556.000	1543.930
64.000	11533.000	1543.930
65.000	11518.000	1544.180
64.000	11494.000	1543.930
63.000	11482.000	1544.050
64.000	11462.000	1544.050
64.000	11440.000	1544.050
65.000	11429.000	1544.050
64.000	11415.000	1544.050
63.000	11394.000	1544.050
64.000	11376.000	1544.050
80.000	11368.000	1544.050
65.000	11347.000	1543.930
64.000	11336.000	1544.050
63.000	11325.000	1543.930
64.000	11310.000	1544.050
64.000	11298.000	1543.930
64.000	11284.000	1544.050
64.000	11273.000	1544.050
64.000	11260.000	1544.050
65.000	11252.000	1543.930
63.000	11237.000	1544.050
64.000	11224.000	1544.050
80.000	11216.000	1544.050
64.000	11209.000	1544.050
64.000	11196.000	1544.050
64.000	11189.000	1544.050
64.000	11176.000	1544.050
64.000	11162.000	1543.930
64.000	11159.000	1543.930
63.000	11148.000	1544.050
64.000	11141.000	1544.050
65.000	11131.000	1543.930
64.000	11127.000	1543.930
63.000	11113.000	1544.050
81.000	11112.000	1543.930
64.000	11096.000	1543.930
63.000	11093.000	1544.050
64.000	11082.000	1544.050
65.000	11078.000	1544.050
63.000	11070.000	1543.930
65.000	11056.000	1544.050
63.000	11059.000	1544.050
65.000	11048.000	1543.930
64.000	11043.000	1543.930
63.000	11035.000	1543.930
64.000	11027.000	1544.050
80.000	11022.000	1543.930
64.000	11032.000	1544.050
65.000	11026.000	1543.930
64.000	11032.000	1544.050
63.000	11031.000	1544.050
64.000	11030.000	1543.930
64.000	11029.000	1543.930
64.000	11032.000	1544.050
64.000	11028.000	1543.930
64.000	11033.000	1543.930
64.000	11027.000	1544.050
64.000	11030.000	1543.930
79.000	11030.000	1543.930
65.000	11032.000	1543.930
63.000	11031.000	1544.050
65.000	11032.000	1544.050
64.000	11025.000	1543.930
64.000	11025.000	1543.930
64.000	11024.000	1544.050
63.000	11029.000	1544.050
64.000	11037.000	1544.050
64.000	11028.000	1544.050
65.000	11029.000	1544.050
63.000	11030.000	1543.930
80.000	11030.000	1544.050
64.000	11027.000	1544.050
64.000	11032.000	1543.930
64.000	11031.000	1543.930
64.000	11034.000	1543.930
65.000	11029.000	1544.050
63.000	11030.000	1543.930
64.000	11028.000	1544.050
64.000	11031.000	1544.050
64.000	11032.000	1543.930
64.000	11027.000	1543.930
64.000	11032.000	1544.050
80.000	11030.000	1544.050
64.000	11031.000	1544.050
64.000	11032.000	1544.050
63.000	11030.000	1543.930
65.000	11028.000	1543.930
64.000	11022.000	1543.930
63.000	11031.000	1543.930
65.000	11030.000	1544.050
63.000	11028.000	1544.050
64.000	11028.000	1544.050
65.000	11024.000	1543.930
64.000	11024.000	1544.050
79.000	11028.000	1543.930
65.000	11033.000	1543.930
63.000	11028.000	1543.930
64.000	11025.000	1544.050
64.000	11032.000	1544.050
64.000	11032.000	1544.050
65.000	11027.000	1543.930
64.000	11029.000	1543.930
63.000	11034.000	1544.050
64.000	11029.000	1543.930
64.000	11037.000	1544.050
64.000	11033.000	1543.930
80.000	11032.000	1544.050
64.000	11029.000	1544.050
65.000	11028.000	1543.930
63.000	11024.000	1543.930
64.000	11025.000	1543.930
64.000	11029.000	1544.050
64.000	11024.000	1543.930
64.000	11027.000	1544.050
65.000	11028.000	1544.050
63.000	11034.000	1543.800
64.000	11032.000	1544.050
64.000	11027.000	1544.050
80.000	11031.000	1544.050
63.000	11028.000	1543.930
65.000	11030.000	1543.930
63.000	11030.000	1543.930
65.000	11031.000	1543.930
64.000	11031.000	1544.050
64.000	11033.000	1544.050
64.000	11030.000	1543.930
64.000	11031.000	1544.050
63.000	11024.000	1543.930
65.000	11026.000	1544.050
63.000	11028.000	1543.930
80.000	11033.000	1544.050
64.000	11027.000	1544.050
64.000	11033.000	1543.930
64.000	11028.000	1544.050
65.000	11032.000	1543.930
63.000	11035.000	1543.930
64.000	11027.000	1544.050
64.000	11031.000	1544.050
64.000	11032.000	1543.930
64.000	11027.000	1544.050
64.000	11031.000	1543.930
64.000	11029.000	1544.050
80.000	11035.000	1544.050
64.000	11042.000	1543.930
63.000	11047.000	1544.050
65.000	11054.000	1543.930
63.000	11061.000	1543.930
65.000	11071.000	1544.050
64.000	11077.000	1543.930
64.000	11085.000	1543.930
64.000	11088.000	1544.050
63.000	11104.000	1544.050
64.000	11109.000	1544.050
64.000	11118.000	1544.050
81.000	11124.000	1544.050
64.000	11136.000	1543.930
63.000	11145.000	1543.930
64.000	11144.000	1544.050
64.000	11158.000	1544.050
64.000	11172.000	1543.930
65.000	11175.000	1544.050
63.000	11187.000	1544.050
65.000	11198.000	1543.930
63.000	11202.000	1544.050
64.000	11218.000	1544.050
64.000	11226.000	1543.930
80.000	11240.000	1544.050
64.000	11255.000	1544.050
64.000	11262.000	1544.050
64.000	11277.000	1543.930
64.000	11289.000	1544.050
63.000	11301.000	1544.050
65.000	11312.000	1544.050
64.000	11324.000	1543.930
65.000	11341.000	1543.930
63.000	11355.000	1543.930
64.000	11369.000	1544.050
63.000	11385.000	1543.930
80.000	11404.000	1543.930
65.000	11418.000	1543.930
63.000	11431.000	1544.050
64.000	11455.000	1544.050
65.000	11468.000	1544.050
64.000	11486.000	1543.930
64.000	11504.000	1543.930
63.000	11523.000	1544.050
65.000	11539.000	1543.930
64.000	11560.000	1543.930
64.000	11582.000	1544.050
63.000	11608.000	1543.930
64.000	11631.000	1544.050
80.000	11649.000	1543.930
64.000	11672.000	1543.930
65.000	11700.000	1544.050
64.000	11723.000	1544.050
63.000	11755.000	1544.050
64.000	11783.000	1544.050
64.000	11810.000	1544.050
64.000	11835.000	1543.930
64.000	11868.000	1543.930
64.000	11897.000	1543.930
64.000	11933.000	1543.930
64.000	11966.000	1543.930
80.000	11994.000	1543.930
63.000	12034.000	1543.930
64.000	12068.000	1544.050
65.000	12107.000	1544.050
63.000	12141.000	1544.050
64.000	12183.000	1543.930
64.000	12223.000	1543.930
65.000	12264.000	1543.930
63.000	12303.000	1543.930
64.000	12353.000	1544.050
65.000	12396.000	1543.930
63.000	12445.000	1543.930
80.000	12498.000	1544.050
65.000	12549.000	1543.930
63.000	12605.000	1544.050
64.000	12661.000	1544.050
64.000	12718.000	1543.930
64.000	12775.000	1544.050
64.000	12835.000	1543.930
64.000	12906.000	1544.050
64.000	12972.000	1544.050
64.000	13036.000	1544.180
64.000	13111.000	1544.440
64.000	13185.000	1544.440
80.000	13268.000	1544.820
64.000	13350.000	1545.200
64.000	13438.000	1545.590
63.000	13536.000	1545.970
65.000	13621.000	1546.480
64.000	13537.000	1545.970
64.000	13434.000	1545.460
64.000	13345.000	1545.080
64.000	13267.000	1544.690
63.000	13185.000	1544.440
65.000	13112.000	1544.440
63.000	13042.000	1544.180
81.000	12976.000	1544.050
63.000	12910.000	1544.050
64.000	12843.000	1544.050
64.000	12778.000	1543.930
64.000	12720.000	1544.050
64.000	12662.000	1543.930
64.000	12607.000	1543.930
64.000	12555.000	1544.050
64.000	12495.000	1543.930
64.000	12449.000	1543.930
64.000	12404.000	1544.050
64.000	12353.000	1544.050
80.000	12309.000	1543.930
63.000	12269.000	1543.930
65.000	12229.000	1543.930
64.000	12185.000	1543.930
64.000	12146.000	1543.930
64.000	12106.000	1544.050
64.000	12068.000	1543.930
64.000	12030.000	1543.930
64.000	11994.000	1543.930
64.000	11961.000	1543.930
63.000	11929.000	1544.050
64.000	11900.000	1543.930
80.000	11866.000	1543.930
64.000	11836.000	1544.050
64.000	11808.000	1543.930
64.000	11785.000	1543.930
64.000	11753.000	1544.050
65.000	11732.000	1543.930
63.000	11703.000	1543.800
64.000	11680.000	1543.930
64.000	11658.000	1543.930
65.000	11631.000	1543.930
64.000	11608.000	1544.050
63.000	11582.000	1543.930
80.000	11558.000	1543.800
64.000	11544.000	1543.930
64.000	11520.000	1543.930
64.000	11501.000	1543.800
64.000	11485.000	1544.050
64.000	11467.000	1543.930
64.000	11445.000	1543.930
63.000	11433.000	1543.930
65.000	11413.000	1544.050
64.000	11404.000	1543.800
63.000	11384.000	1543.930
65.000	11371.000	1543.930
80.000	11351.000	1543.930
64.000	11341.000	1544.050
63.000	11325.000	1543.930
65.000	11313.000	1543.930
64.000	11308.000	1543.930
63.000	11289.000	1544.050
64.000	11273.000	1544.050
65.000	11266.000	1544.050
63.000	11253.000	1543.930
65.000	11242.000	1543.930
64.000	11229.000	1543.930
63.000	11222.000	1544.050
80.000	11208.000	1544.050
65.000	11199.000	1543.930
63.000	11184.000	1543.930
65.000	11174.000	1544.050
63.000	11168.000	1543.930
64.000	11160.000	1543.930
64.000	11152.000	1543.930
64.000	11144.000	1543.930
64.000	11136.000	1544.050
64.000	11123.000	1543.930
64.000	11120.000	1544.050
64.000	11108.000	1543.930
80.000	11107.000	1543.930
63.000	11095.000	1543.930
65.000	11084.000	1543.930
64.000	11079.000	1543.930
63.000	11070.000	1543.930
65.000	11060.000	1544.050
64.000	11054.000	1544.050
63.000	11038.000	1544.050
65.000	11041.000	1543.930
63.000	11037.000	1543.930
65.000	11029.000	1543.930
64.000	11029.000	1544.050
79.000	11027.000	1544.050
65.000	11027.000	1543.930
64.000	11025.000	1543.930
63.000	11030.000	1543.930
64.000	11027.000	1544.050
64.000	11033.000	1544.050
65.000	11024.000	1544.050
63.000	11030.000	1543.930
65.000	11030.000	1543.930
63.000	11028.000	1543.930
64.000	11024.000	1543.930
64.000	11033.000	1543.930
80.000	11026.000	1543.930
64.000	11034.000	1544.050
64.000	11025.000	1543.930
64.000	11029.000	1544.050
64.000	11025.000	1543.930
64.000	11032.000	1543.930
64.000	11031.000	1544.050
64.000	11031.000	1543.930
63.000	11027.000	1543.930
65.000	11031.000	1543.930
64.000	11027.000	1543.930
63.000	11027.000	1543.930
80.000	11027.000	1543.930
64.000	11026.000	1543.930
65.000	11026.000	1544.050
63.000	11028.000	1543.930
65.000	11028.000	1543.930
63.000	11025.000	1544.050
64.000	11026.000	1544.050
64.000	11028.000	1543.930
64.000	11030.000	1543.930
64.000	11027.000	1543.930
64.000	11032.000	1543.930
64.000	11032.000	1544.050
80.000	11031.000	1543.930
64.000	11028.000	1543.930
64.000	11032.000	1543.930
64.000	11027.000	1544.050
64.000	11029.000	1543.930
64.000	11029.000	1543.930
64.000	11030.000	1543.930
64.000	11029.000	1543.930
64.000	11028.000	1544.050
64.000	11028.000	1543.930
64.000	11028.000	1543.930
64.000	11030.000	1543.930
80.000	11034.000	1543.930
63.000	11035.000	1543.930
65.000	11028.000	1544.050
63.000	11031.000	1543.930
64.000	11028.000	1543.930
65.000	11027.000	1543.930
63.000	11033.000	1544.050
65.000	11032.000	1543.930
63.000	11035.000	1544.050
64.000	11029.000	1544.050
64.000	11033.000	1543.930
64.000	11025.000	1543.930
80.000	11031.000	1544.050
65.000	11028.000	1544.050
63.000	11030.000	1543.930
64.000	11029.000	1544.050
64.000	11034.000	1543.930
64.000	11026.000	1543.930
64.000	11032.000	1543.930
64.000	11026.000	1543.930
64.000	11031.000	1543.930
63.000	11027.000	1543.930
65.000	11027.000	1543.930
64.000	11032.000	1543.930
80.000	11028.000	1543.930
64.000	11024.000	1544.050
64.000	11030.000	1543.930
64.000	11029.000	1544.050
64.000	11028.000	1543.930
65.000	11029.000	1543.930
63.000	11031.000	1543.930
64.000	11030.000	1543.930
64.000	11029.000	1544.050
64.000	11027.000	1543.930
64.000	11030.000	1543.930
64.000	11031.000	1543.930
80.000	11033.000	1543.930
64.000	11028.000	1544.050
63.000	11030.000	1543.930
64.000	11031.000	1543.930
65.000	11030.000	1543.930
63.000	11024.000	1543.930
64.000	11024.000	1544.050
64.000	11029.000	1543.930
64.000	11030.000	1543.930
64.000	11029.000	1544.050
64.000	11025.000	1543.930
64.000	11036.000	1543.930
81.000	11043.000	1543.930
63.000	11048.000	1543.930
64.000	11051.000	1543.930
64.000	11055.000	1543.930
64.000	11064.000	1543.930
64.000	11081.000	1543.930
64.000	11081.000	1543.930
64.000	11087.000	1543.930
63.000	11098.000	1543.930
65.000	11109.000	1543.930
64.000	11116.000	1543.930
63.000	11124.000	1543.930
65.000	11132.000	1543.930
80.000	11140.000	1543.930
64.000	11151.000	1543.930
64.000	11158.000	1543.930
64.000	11164.000	1543.930
63.000	11171.000	1543.930
64.000	11190.000	1543.930
64.000	11200.000	1543.930
64.000	11205.000	1544.050
65.000	11214.000	1544.050
63.000	11232.000	1544.050
64.000	11236.000	1543.930
65.000	11248.000	1543.930
80.000	11258.000	1543.930
63.000	11272.000	1543.930
64.000	11284.000	1543.930
64.000	11298.000	1543.930
64.000	11306.000	1544.050
64.000	11324.000	1543.930
64.000	11336.000	1543.930
64.000	11353.000	1543.930
64.000	11367.000	1543.930
64.000	11381.000	1543.930
63.000	11397.000	1544.050
65.000	11412.000	1544.050
80.000	11429.000	1544.050
64.000	11445.000	1543.930
63.000	11465.000	1543.930
64.000	11477.000	1543.930
65.000	11499.000	1543.800
63.000	11514.000	1543.930
65.000	11537.000	1543.930
64.000	11552.000	1543.930
64.000	11574.000	1544.050
64.000	11603.000	1543.930
63.000	11625.000	1543.930
64.000	11647.000	1543.930
80.000	11671.000	1543.930
64.000	11695.000	1543.930
64.000	11721.000	1543.930
64.000	11745.000	1543.930
65.000	11774.000	1543.930
63.000	11798.000	1543.930
64.000	11827.000	1543.930
64.000	11864.000	1543.930
64.000	11889.000	1543.930
64.000	11920.000	1544.050
64.000	11953.000	1543.930
64.000	11987.000	1543.930
80.000	12023.000	1543.930
63.000	12053.000	1543.930
65.000	12093.000	1544.050
64.000	12136.000	1543.930
63.000	12170.000	1543.930
65.000	12212.000	1543.930
64.000	12253.000	1544.050
64.000	12293.000	1544.050
64.000	12341.000	1543.930
64.000	12380.000	1543.800
64.000	12428.000	1543.930
64.000	12482.000	1544.050
80.000	12533.000	1544.050
63.000	12588.000	1543.930
64.000	12642.000	1543.930
64.000	12699.000	1543.930
65.000	12756.000	1543.930
63.000	12820.000	1543.930
64.000	12880.000	1543.930
65.000	12952.000	1543.930
63.000	13016.000	1544.180
64.000	13092.000	1544.180
64.000	13154.000	1544.440
64.000	13240.000	1544.570
80.000	13329.000	1544.950
64.000	13411.000	1545.330
64.000	13513.000	1545.840
64.000	13608.000	1546.350
64.000	13571.000	1546.100
65.000	13470.000	1545.460
63.000	13375.000	1544.950
64.000	13294.000	1544.820
64.000	13209.000	1544.310
64.000	13134.000	1544.180
64.000	13066.000	1544.180
64.000	12996.000	1543.930
80.000	12932.000	1543.930
64.000	12862.000	1543.930
63.000	12802.000	1543.930
64.000	12740.000	1543.930
65.000	12680.000	1544.050
63.000	12620.000	1543.930
64.000	12572.000	1544.050
65.000	12515.000	1543.930
64.000	12461.000	1543.930
64.000	12417.000	1543.930
63.000	12368.000	1543.930
64.000	12323.000	1544.050
80.000	12279.000	1544.050
65.000	12237.000	1543.930
63.000	12196.000	1544.050
64.000	12158.000	1544.050
64.000	12120.000	1543.930
64.000	12077.000	1543.930
64.000	12044.000	1543.930
64.000	12007.000	1543.930
63.000	11975.000	1544.050
65.000	11942.000	1543.930
64.000	11909.000	1544.050
64.000	11883.000	1543.930
80.000	11845.000	1543.930
64.000	11813.000	1543.930
64.000	11790.000	1543.930
64.000	11763.000	1543.930
64.000	11738.000	1543.930
64.000	11709.000	1543.930
64.000	11687.000	1543.800
64.000	11668.000	1543.930
64.000	11636.000	1543.930
64.000	11610.000	1543.930
64.000	11591.000	1543.930
64.000	11568.000	1543.800
80.000	11541.000	1544.050
63.000	11532.000	1544.050
64.000	11510.000	1543.930
65.000	11493.000	1543.930
63.000	11473.000	1543.930
64.000	11458.000	1543.930
64.000	11437.000	1543.930
64.000	11422.000	1543.930
64.000	11408.000	1543.930
64.000	11390.000	1543.930
65.000	11374.000	1543.930
64.000	11362.000	1543.930
79.000	11341.000	1544.050
65.000	11330.000	1543.930
63.000	11317.000	1543.930
64.000	11306.000	1544.050
63.000	11286.000	1543.930
65.000	11277.000	1543.800
64.000	11270.000	1543.930
64.000	11253.000	1544.050
63.000	11247.000	1543.930
65.000	11231.000	1543.930
64.000	11224.000	1543.930
64.000	11218.000	1543.930
80.000	11203.000	1543.800
64.000	11188.000	1543.800
64.000	11183.000	1543.930
63.000	11176.000	1543.930
65.000	11169.000	1543.930
64.000	11154.000	1543.930
64.000	11150.000	1543.930
64.000	11138.000	1543.800
64.000	11128.000	1543.930
63.000	11114.000	1543.930
64.000	11115.000	1543.930
64.000	11114.000	1543.930
80.000	11090.000	1543.930
64.000	11084.000	1543.930
64.000	11080.000	1544.050
64.000	11076.000	1543.930
64.000	11066.000	1543.930
64.000	11056.000	1543.930
64.000	11052.000	1543.930
63.000	11045.000	1544.050
65.000	11040.000	1543.930
64.000	11034.000	1543.930
63.000	11025.000	1544.050
64.000	11024.000	1544.050
81.000	11030.000	1544.050
63.000	11032.000	1543.930
64.000	11027.000	1544.050
64.000	11028.000	1543.930
65.000	11027.000	1543.930
64.000	11030.000	1543.930
63.000	11033.000	1543.930
64.000	11032.000	1544.050
65.000	11032.000	1543.930
63.000	11036.000	1543.930
64.000	11026.000	1543.930
64.000	11023.000	1544.050
81.000	11033.000	1543.800
63.000	11029.000	1543.930
64.000	11030.000	1543.800
64.000	11024.000	1543.930
65.000	11027.000	1543.930
64.000	11027.000	1543.930
63.000	11027.000	1543.930
64.000	11029.000	1543.930
64.000	11028.000	1543.930
64.000	11030.000	1543.930
64.000	11031.000	1543.930
64.000	11025.000	1543.930
64.000	11031.000	1543.930
80.000	11029.000	1543.930
64.000	11026.000	1543.930
64.000	11031.000	1543.800
64.000	11031.000	1543.930
64.000	11026.000	1543.930
64.000	11033.000	1543.930
64.000	11033.000	1543.930
64.000	11029.000	1544.050
63.000	11028.000	1543.930
64.000	11031.000	1544.050
64.000	11028.000	1543.930
64.000	11029.000	1544.050
80.000	11030.000	1543.930
65.000	11031.000	1544.050
64.000	11028.000	1543.930
64.000	11027.000	1543.930
63.000	11029.000	1543.930
64.000	11025.000	1543.800
64.000	11029.000	1543.930
65.000	11019.000	1543.930
64.000	11033.000	1543.800
63.000	11028.000	1543.930
64.000	11030.000	1543.930
64.000	11027.000	1543.930
80.000	11029.000	1543.930
64.000	11025.000	1543.800
64.000	11026.000	1543.930
64.000	11029.000	1543.930
64.000	11024.000	1543.800
64.000	11029.000	1543.930
64.000	11028.000	1543.930
64.000	11031.000	1544.050
63.000	11035.000	1543.800
65.000	11033.000	1543.930
63.000	11027.000	1543.930
64.000	11031.000	1543.930
80.000	11028.000	1543.930
65.000	11032.000	1543.930
63.000	11033.000	1543.930
65.000	11034.000	1543.800
64.000	11026.000	1543.930
64.000	11030.000	1543.800
64.000	11029.000	1543.930
63.000	11028.000	1543.930
64.000	11035.000	1544.050
64.000	11031.000	1543.930
64.000	11029.000	1543.930
64.000	11030.000	1543.930
80.000	11024.000	1543.930
64.000	11029.000	1543.930
64.000	11023.000	1543.930
64.000	11031.000	1543.930
64.000	11032.000	1543.930
64.000	11025.000	1543.800
64.000	11028.000	1543.930
64.000	11031.000	1543.930
64.000	11029.000	1544.050
64.000	11030.000	1543.930
64.000	11030.000	1543.930
64.000	11026.000	1543.930
80.000	11027.000	1543.930
64.000	11032.000	1544.050
64.000	11028.000	1543.800
64.000	11031.000	1543.930
64.000	11025.000	1543.930
64.000	11030.000	1543.930
64.000	11028.000	1544.050
64.000	11031.000	1543.930
63.000	11025.000	1543.930
64.000	11032.000	1543.930
65.000	11038.000	1544.050
64.000	11048.000	1543.800
80.000	11047.000	1543.930
64.000	11054.000	1543.930
64.000	11062.000	1543.930
64.000	11071.000	1543.800
64.000	11081.000	1543.930
63.000	11087.000	1543.930
64.000	11093.000	1543.800
64.000	11098.000	1543.930
64.000	11106.000	1543.930
64.000	11120.000	1543.930
64.000	11125.000	1543.930
64.000	11137.000	1543.800
80.000	11140.000	1543.930
64.000	11149.000	1543.800
64.000	11164.000	1543.930
64.000	11172.000	1543.930
64.000	11179.000	1543.930
64.000	11191.000	1543.930
64.000	11195.000	1543.930
63.000	11208.000	1543.930
65.000	11219.000	1543.800
64.000	11230.000	1543.930
64.000	11240.000	1543.930
64.000	11253.000	1543.930
80.000	11263.000	1543.800
64.000	11281.000	1543.930
63.000	11286.000	1543.930
65.000	11301.000	1543.930
63.000	11320.000	1543.800
65.000	11322.000	1543.930
64.000	11341.000	1543.800
63.000	11356.000	1543.930
65.000	11372.000	1543.930
64.000	11390.000	1543.800
63.000	11402.000	1543.800
64.000	11419.000	1543.800
81.000	11436.000	1543.930
63.000	11448.000	1543.800
64.000	11466.000	1543.930
64.000	11490.000	1543.930
64.000	11503.000	1543.930
64.000	11522.000	1543.800
64.000	11542.000	1543.930
64.000	11564.000	1543.930
64.000	11587.000	1543.930
64.000	11607.000	1543.930
64.000	11632.000	1543.800
64.000	11661.000	1543.930
80.000	11678.000	1543.800
64.000	11709.000	1543.930
64.000	11733.000	1543.800
64.000	11758.000	1543.930
64.000	11782.000	1543.930
64.000	11810.000	1543.930
64.000	11839.000	1543.800
63.000	11879.000	1543.800
65.000	11904.000	1543.930
64.000	11929.000	1543.800
64.000	11973.000	1543.930
63.000	12000.000	1543.930
81.000	12037.000	1544.050
63.000	12071.000	1543.930
65.000	12114.000	1544.050
63.000	12150.000	1543.930
64.000	12187.000	1543.800
64.000	12228.000	1543.930
64.000	12266.000	1543.800
64.000	12311.000	1543.930
65.000	12359.000	1543.930
63.000	12408.000	1543.800
64.000	12451.000	1543.800
64.000	12504.000	1543.930
80.000	12554.000	1543.930
65.000	12608.000	1543.930
63.000	12666.000	1543.930
64.000	12724.000	1543.930
64.000	12784.000	1543.930
63.000	12846.000	1543.930
65.000	12914.000	1543.930
64.000	12976.000	1544.050
64.000	13049.000	1544.050
64.000	13119.000	1544.310
64.000	13191.000	1544.440
63.000	13276.000	1544.690
81.000	13363.000	1545.080
63.000	13449.000	1545.590
65.000	13550.000	1546.100
63.000	13613.000	1546.350
65.000	13528.000	1545.840
63.000	13426.000	1545.330
65.000	13336.000	1544.950
63.000	13247.000	1544.440
65.000	13179.000	1544.310
64.000	13100.000	1544.050
63.000	13038.000	1544.050
65.000	12967.000	1543.930
63.000	12901.000	1543.930
80.000	12834.000	1543.800
64.000	12773.000	1543.930
64.000	12717.000	1543.930
64.000	12656.000	1543.930
64.000	12598.000	1543.670
64.000	12545.000	1544.050
64.000	12495.000	1544.050
64.000	12442.000	1543.930
64.000	12393.000	1543.930
64.000	12347.000	1543.800
64.000	12303.000	1543.930
64.000	12258.000	1543.930
80.000	12221.000	1543.930
64.000	12183.000	1543.800
65.000	12144.000	1543.930
63.000	12105.000	1543.930
64.000	12066.000	1543.930
63.000	12028.000	1543.800
65.000	11990.000	1543.930
64.000	11958.000	1543.930
64.000	11921.000	1543.930
63.000	11896.000	1543.930
65.000	11860.000	1543.930
63.000	11837.000	1543.930
80.000	11799.000	1543.800
65.000	11780.000	1543.930
63.000	11755.000	1543.930
64.000	11720.000	1544.050
65.000	11703.000	1543.800
64.000	11673.000	1543.800
63.000	11648.000	1543.800
65.000	11625.000	1543.800
63.000	11606.000	1544.050
64.000	11582.000	1543.930
64.000	11563.000	1543.930
64.000	11536.000	1543.930
80.000	11516.000	1543.930
64.000	11497.000	1543.800
64.000	11483.000	1544.050
64.000	11463.000	1543.930
64.000	11450.000	1543.930
64.000	11430.000	1543.800
64.000	11414.000	1543.800
64.000	11395.000	1543.800
64.000	11383.000	1543.800
64.000	11367.000	1543.800
64.000	11351.000	1543.800
63.000	11339.000	1543.800
81.000	11319.000	1543.930
63.000	11313.000	1544.050
65.000	11300.000	1543.930
64.000	11285.000	1543.800
63.000	11278.000	1543.930
65.000	11261.000	1543.800
64.000	11251.000	1543.930
64.000	11240.000	1543.930
63.000	11229.000	1544.050
64.000	11219.000	1543.930
64.000	11208.000	1543.800
64.000	11196.000	1543.800
80.000	11181.000	1543.930
64.000	11179.000	1543.800
64.000	11170.000	1543.930
64.000	11163.000	1543.800
64.000	11148.000	1543.930
64.000	11148.000	1543.930
64.000	11136.000	1543.930
64.000	11125.000	1543.930
64.000	11118.000	1543.930
64.000	11107.000	1543.930
64.000	11106.000	1543.930
64.000	11091.000	1543.800
80.000	11082.000	1543.800
64.000	11075.000	1543.800
64.000	11069.000	1543.930
63.000	11061.000	1543.800
64.000	11063.000	1543.930
64.000	11052.000	1543.930
64.000	11045.000	1543.930
64.000	11037.000	1543.800
65.000	11025.000	1543.930
64.000	11023.000	1543.930
64.000	11030.000	1543.930
63.000	11030.000	1543.930
80.000	11032.000	1543.800
64.000	11033.000	1543.930
65.000	11028.000	1543.930
63.000	11030.000	1543.930
64.000	11023.000	1543.930
64.000	11027.000	1544.050
64.000	11025.000	1543.930
64.000	11028.000	1543.800
64.000	11031.000	1543.930
64.000	11027.000	1543.930
64.000	11027.000	1543.930
64.000	11032.000	1543.930
79.000	11031.000	1543.930
65.000	11025.000	1544.050
65.000	11027.000	1543.800
63.000	11025.000	1543.800
64.000	11020.000	1543.930
64.000	11027.000	1543.800
64.000	11029.000	1543.930
63.000	11033.000	1543.800
65.000	11032.000	1543.930
64.000	11027.000	1543.800
64.000	11031.000	1543.800
63.000	11027.000	1543.930
81.000	11027.000	1543.800
64.000	11033.000	1543.800
63.000	11029.000	1543.930
64.000	11028.000	1543.930
65.000	11030.000	1543.930
64.000	11029.000	1543.930
63.000	11026.000	1543.800
64.000	11027.000	1543.930
64.000	11030.000	1543.930
64.000	11031.000	1543.800
64.000	11027.000	1543.930
65.000	11025.000	1543.930
79.000	11030.000	1543.800
64.000	11030.000	1543.930
64.000	11030.000	1543.800
64.000	11024.000	1543.800
64.000	11029.000	1543.800
64.000	11027.000	1543.930
64.000	11033.000	1543.930
63.000	11029.000	1543.930
65.000	11030.000	1543.800
64.000	11027.000	1543.800
64.000	11025.000	1543.930
64.000	11026.000	1543.930
80.000	11028.000	1543.800
64.000	11033.000	1543.930
64.000	11025.000	1543.800
64.000	11033.000	1543.800
63.000	11028.000	1543.930
64.000	11032.000	1543.930
64.000	11029.000	1543.930
64.000	11031.000	1544.050
64.000	11029.000	1543.930
65.000	11031.000	1543.800
64.000	11027.000	1543.800
64.000	11032.000	1543.930
80.000	11027.000	1543.930
63.000	11032.000	1543.930
65.000	11032.000	1543.930
63.000	11029.000	1543.930
64.000	11030.000	1543.800
64.000	11033.000	1543.930
64.000	11030.000	1543.930
64.000	11029.000	1543.800
64.000	11030.000	1543.930
64.000	11030.000	1543.800
64.000	11030.000	1543.800
64.000	11024.000	1543.930
80.000	11024.000	1543.930
64.000	11030.000	1543.800
64.000	11026.000	1543.930
64.000	11034.000	1543.930
64.000	11030.000	1543.930
64.000	11030.000	1543.930
64.000	11030.000	1543.930
64.000	11031.000	1543.930
63.000	11024.000	1543.800
65.000	11031.000	1543.930
63.000	11032.000	1543.930
64.000	11031.000	1543.930
81.000	11029.000	1543.800
63.000	11028.000	1543.800
64.000	11023.000	1543.930
64.000	11026.000	1543.800
65.000	11031.000	1543.800
63.000	11030.000	1543.800
64.000	11031.000	1543.930
64.000	11028.000	1543.930
64.000	11035.000	1543.800
64.000	11031.000	1543.800
64.000	11029.000	1543.800
64.000	11027.000	1544.050
80.000	11033.000	1543.930
64.000	11033.000	1543.800
64.000	11026.000	1543.800
64.000	11025.000	1543.930
63.000	11023.000	1543.800
64.000	11032.000	1543.800
65.000	11026.000	1543.800
64.000	11029.000	1543.800
64.000	11025.000	1543.930
64.000	11025.000	1543.930
64.000	11028.000	1543.930
63.000	11025.000	1543.930
80.000	11024.000	1543.930
64.000	11028.000	1543.930
64.000	11026.000	1543.800
64.000	11027.000	1543.930
64.000	11022.000	1543.800
64.000	11028.000	1543.930
64.000	11032.000	1543.930
64.000	11030.000	1543.800
64.000	11028.000	1543.800
65.000	11024.000	1543.800
63.000	11026.000	1543.930
64.000	11035.000	1543.800
65.000	11026.000	1543.930
79.000	11029.000	1543.930
64.000	11029.000	1543.930
64.000	11030.000	1543.800
64.000	11029.000	1543.800
64.000	11031.000	1543.800
63.000	11032.000	1543.930
64.000	11029.000	1543.800
65.000	11034.000	1543.930
64.000	11029.000	1543.800
64.000	11028.000	1543.800
64.000	11027.000	1543.800
64.000	11025.000	1543.800
80.000	11035.000	1543.800
64.000	11031.000	1543.800
63.000	11030.000	1543.930
65.000	11030.000	1543.930
63.000	11031.000	1543.930
64.000	11030.000	1543.800
65.000	11030.000	1543.930
63.000	11026.000	1543.800
64.000	11030.000	1543.800
64.000	11028.000	1543.800
64.000	11024.000	1543.930
64.000	11030.000	1543.930
80.000	11026.000	1543.800
64.000	11033.000	1543.930
64.000	11030.000	1543.930
64.000	11025.000	1543.930
64.000	11029.000	1543.930
64.000	11026.000	1543.800
64.000	11029.000	1543.930
64.000	11033.000	1543.930
65.000	11024.000	1543.930
63.000	11031.000	1543.930
64.000	11031.000	1543.930
64.000	11029.000	1543.800
80.000	11029.000	1543.930
64.000	11027.000	1543.930
64.000	11028.000	1543.800
64.000	11026.000	1543.930
63.000	11028.000	1543.800
64.000	11029.000	1543.930
65.000	11030.000	1543.800
63.000	11030.000	1543.930
65.000	11023.000	1543.930
63.000	11028.000	1543.800
65.000	11029.000	1543.930
63.000	11036.000	1543.800
80.000	11031.000	1543.930
65.000	11024.000	1543.930
64.000	11030.000	1543.800
63.000	11032.000	1543.800
64.000	11031.000	1543.800
64.000	11029.000	1543.800
64.000	11026.000	1543.800
64.000	11027.000	1543.930
64.000	11032.000	1543.800
64.000	11025.000	1543.800
64.000	11033.000	1543.800
65.000	11033.000	1543.800
80.000	11027.000	1543.800
63.000	11029.000	1543.800
64.000	11029.000	1543.930
63.000	11031.000	1543.930
65.000	11025.000	1543.800
64.000	11024.000	1543.800
63.000	11030.000	1543.800
65.000	11030.000	1543.800
64.000	11025.000	1543.930
64.000	11026.000	1543.800
64.000	11023.000	1543.800
63.000	11028.000	1543.800
81.000	11031.000	1543.930
65.000	11028.000	1543.930
63.000	11026.000	1543.800
64.000	11027.000	1543.930
63.000	11026.000	1543.930
64.000	11027.000	1543.930
64.000	11028.000	1543.930
65.000	11029.000	1543.800
63.000	11023.000	1543.930
64.000	11026.000	1543.800
64.000	11030.000	1543.800
64.000	11026.000	1543.800
80.000	11027.000	1543.800
64.000	11022.000	1543.800
64.000	11027.000	1543.930
64.000	11027.000	1543.670
64.000	11025.000	1543.930
64.000	11024.000	1543.800
64.000	11023.000	1543.930
64.000	11031.000	1543.800
64.000	11030.000	1543.800
64.000	11026.000	1543.800
63.000	11033.000	1543.800
65.000	11025.000	1543.930
79.000	11027.000	1543.930
65.000	11029.000	1543.800
