Loop Time (ms)	IR (16 bit)	Force (N)
250.000	0.000	0.000
3238.000	0.000	0.000
48.000	0.000	0.000
22.000	0.000	0.000
20.000	0.000	0.000
22.000	0.000	0.000
20.000	0.000	0.000
20.000	0.000	0.000
24.000	0.000	0.000
20.000	0.000	0.000
20.000	0.000	0.000
24.000	0.000	0.000
20.000	0.000	0.000
20.000	0.000	0.000
23.000	0.000	0.000
20.000	0.000	0.000
20.000	0.000	0.000
41.000	0.000	0.000
20.000	0.000	0.000
21.000	0.000	0.000
23.000	0.000	0.000
20.000	0.000	0.000
20.000	0.000	0.000
24.000	0.000	0.000
21.000	0.000	0.000
20.000	0.000	0.000
22.000	0.000	0.000
20.000	0.000	0.000
23.000	0.000	0.000
21.000	0.000	0.000
20.000	0.000	0.000
20.000	0.000	0.000
24.000	0.000	0.000
20.000	0.000	0.000
20.000	0.000	0.000
25.000	0.000	0.000
20.000	0.000	0.000
20.000	0.000	0.000
23.000	0.000	0.000
20.000	0.000	0.000
22.000	0.000	0.000
23.000	0.000	0.000
20.000	0.000	0.000
20.000	0.000	0.000
23.000	0.000	0.000
21.000	0.000	0.000
20.000	0.000	0.000
24.000	0.000	0.000
20.000	0.000	0.000
21.000	0.000	0.000
23.000	0.000	0.000
21.000	0.000	0.000
21.000	0.000	0.000
37.000	0.000	0.000
21.000	0.000	0.000
21.000	0.000	0.000
27.000	0.000	0.000
20.000	0.000	0.000
20.000	0.000	0.000
20.000	0.000	0.000
20.000	0.000	0.000
23.000	0.000	0.000
21.000	0.000	0.000
20.000	0.000	0.000
21.000	0.000	0.000
22.000	0.000	0.000
20.000	0.000	0.000
20.000	0.000	0.000
24.000	0.000	0.000
22.000	0.000	0.000
22.000	0.000	0.000
21.000	0.000	0.000
20.000	7907.000	1567.040
43.000	7911.000	1567.040
64.000	7908.000	1567.040
63.000	7908.000	1567.170
64.000	7907.000	1567.040
68.000	7907.000	1567.170
76.000	7910.000	1567.040
64.000	7910.000	1567.040
65.000	7902.000	1567.170
63.000	7909.000	1567.040
64.000	7906.000	1567.040
65.000	7910.000	1567.170
63.000	7911.000	1567.170
64.000	7910.000	1567.170
64.000	7910.000	1567.170
64.000	7908.000	1567.040
64.000	7914.000	1567.170
64.000	7905.000	1567.170
79.000	7912.000	1567.040
65.000	7907.000	1567.170
64.000	7907.000	1567.040
64.000	7916.000	1567.170
63.000	7910.000	1567.170
66.000	7911.000	1567.170
63.000	7909.000	1567.040
64.000	7909.000	1567.170
63.000	7911.000	1567.040
65.000	7910.000	1567.170
63.000	7908.000	1567.040
65.000	7910.000	1567.170
79.000	7911.000	1567.170
64.000	7914.000	1567.040
64.000	7909.000	1567.170
64.000	7909.000	1567.040
64.000	7911.000	1567.040
64.000	7909.000	1567.040
64.000	7909.000	1567.170
64.000	7910.000	1567.040
64.000	7910.000	1567.040
64.000	7912.000	1567.170
63.000	7910.000	1567.040
65.000	7910.000	1567.040
80.000	7912.000	1567.040
64.000	7909.000	1567.040
63.000	7910.000	1567.170
64.000	7909.000	1567.170
65.000	7907.000	1567.040
64.000	7908.000	1567.040
64.000	7909.000	1567.040
64.000	7906.000	1567.170
63.000	7908.000	1567.040
65.000	7911.000	1567.170
63.000	7914.000	1567.040
64.000	7913.000	1567.040
80.000	7911.000	1567.170
65.000	7911.000	1567.170
63.000	7909.000	1567.170
64.000	7913.000	1566.920
64.000	7911.000	1567.170
64.000	7915.000	1567.040
64.000	7914.000	1567.040
64.000	7913.000	1567.170
65.000	7909.000	1567.170
63.000	7910.000	1567.170
64.000	7911.000	1567.040
64.000	7910.000	1567.040
80.000	7917.000	1567.170
64.000	7909.000	1567.040
64.000	7913.000	1567.040
63.000	7909.000	1567.040
65.000	7906.000	1567.040
63.000	7910.000	1567.040
64.000	7921.000	1567.040
65.000	7908.000	1567.170
63.000	7910.000	1567.040
64.000	7914.000	1567.040
64.000	7914.000	1567.040
64.000	7915.000	1567.170
80.000	7913.000	1567.040
64.000	7907.000	1567.170
65.000	7914.000	1567.170
63.000	7911.000	1567.170
64.000	7916.000	1567.170
64.000	7909.000	1566.920
64.000	7909.000	1567.170
64.000	7910.000	1567.170
64.000	7915.000	1567.040
64.000	7911.000	1567.170
64.000	7914.000	1567.040
64.000	7914.000	1567.040
79.000	7912.000	1567.170
65.000	7910.000	1567.170
64.000	7913.000	1567.170
63.000	7914.000	1567.040
64.000	7913.000	1567.170
65.000	7916.000	1567.170
63.000	7912.000	1567.040
64.000	7912.000	1567.040
64.000	7910.000	1567.170
65.000	7919.000	1567.040
63.000	7913.000	1567.170
64.000	7914.000	1567.170
80.000	7915.000	1567.040
65.000	7912.000	1567.170
63.000	7914.000	1567.040
64.000	7914.000	1567.170
64.000	7914.000	1567.170
64.000	7912.000	1567.040
64.000	7909.000	1567.170
64.000	7918.000	1567.040
64.000	7915.000	1567.170
64.000	7913.000	1567.040
64.000	7914.000	1567.040
64.000	7911.000	1567.170
79.000	7914.000	1567.170
64.000	7917.000	1567.170
65.000	7917.000	1567.170
64.000	7911.000	1567.040
63.000	7917.000	1567.040
65.000	7915.000	1567.170
63.000	7914.000	1567.040
65.000	7916.000	1567.040
63.000	7913.000	1567.040
64.000	7912.000	1567.040
64.000	7916.000	1567.040
64.000	7913.000	1567.040
80.000	7921.000	1567.040
64.000	7916.000	1567.170
64.000	7911.000	1567.040
64.000	7911.000	1567.170
64.000	7916.000	1567.170
64.000	7916.000	1567.170
64.000	7918.000	1567.170
64.000	7915.000	1567.040
64.000	7915.000	1567.040
64.000	7919.000	1567.170
64.000	7918.000	1567.040
64.000	7916.000	1567.040
80.000	7914.000	1567.040
64.000	7918.000	1567.170
64.000	7917.000	1567.170
63.000	7913.000	1567.170
65.000	7915.000	1566.920
64.000	7923.000	1567.040
63.000	7936.000	1567.170
65.000	7942.000	1567.170
64.000	7948.000	1567.170
63.000	7959.000	1567.040
64.000	7963.000	1567.040
64.000	7976.000	1567.170
80.000	7987.000	1567.040
64.000	7994.000	1567.040
64.000	8010.000	1567.040
64.000	8020.000	1567.170
64.000	8034.000	1567.040
64.000	8046.000	1567.170
64.000	8056.000	1567.040
64.000	8068.000	1567.040
64.000	8078.000	1567.040
63.000	8091.000	1567.040
65.000	8105.000	1567.040
64.000	8119.000	1567.170
80.000	8138.000	1567.040
64.000	8153.000	1567.040
63.000	8160.000	1567.040
64.000	8181.000	1567.040
64.000	8198.000	1567.170
64.000	8208.000	1567.040
65.000	8230.000	1567.170
63.000	8246.000	1567.170
64.000	8261.000	1567.170
64.000	8279.000	1567.170
65.000	8306.000	1567.170
80.000	8320.000	1567.040
63.000	8339.000	1567.040
64.000	8360.000	1567.040
65.000	8383.000	1567.170
63.000	8409.000	1567.040
64.000	8429.000	1567.040
64.000	8454.000	1567.040
64.000	8480.000	1567.170
64.000	8505.000	1567.170
64.000	8533.000	1567.040
64.000	8563.000	1567.170
64.000	8589.000	1567.040
80.000	8621.000	1567.170
64.000	8659.000	1567.040
64.000	8693.000	1567.040
64.000	8721.000	1567.170
63.000	8771.000	1567.040
65.000	8816.000	1567.170
64.000	8866.000	1567.170
63.000	8913.000	1567.040
65.000	8964.000	1567.170
64.000	9028.000	1567.170
64.000	9070.000	1567.170
64.000	9138.000	1567.170
80.000	9207.000	1567.170
63.000	9273.000	1567.170
64.000	9339.000	1567.300
64.000	9437.000	1567.300
64.000	9638.000	1567.300
64.000	9764.000	1567.300
64.000	9900.000	1567.430
64.000	10057.000	1567.550
64.000	10185.000	1567.680
63.000	10291.000	1567.680
65.000	10384.000	1567.810
63.000	10462.000	1567.930
81.000	10552.000	1567.810
63.000	10628.000	1568.060
65.000	10652.000	1568.060
63.000	10667.000	1568.320
64.000	10654.000	1568.440
64.000	10644.000	1568.700
65.000	10664.000	1568.830
63.000	10700.000	1568.950
65.000	10731.000	1569.210
63.000	10765.000	1569.340
64.000	10794.000	1569.590
64.000	10852.000	1569.840
80.000	10918.000	1569.840
64.000	11028.000	1570.230
64.000	11190.000	1570.480
64.000	11427.000	1570.610
64.000	11709.000	1570.860
64.000	11981.000	1571.120
64.000	12215.000	1571.250
64.000	12440.000	1571.500
63.000	12582.000	1571.880
65.000	12757.000	1571.880
63.000	12952.000	1572.140
64.000	13202.000	1572.520
80.000	13442.000	1572.900
64.000	13542.000	1573.160
64.000	13640.000	1573.410
64.000	13822.000	1573.790
65.000	13981.000	1574.170
63.000	14245.000	1574.430
64.000	14458.000	1574.940
64.000	14670.000	1575.320
65.000	15086.000	1575.700
63.000	15309.000	1576.210
65.000	15544.000	1576.590
63.000	15796.000	1577.100
81.000	16039.000	1577.100
63.000	15900.000	1575.700
64.000	15731.000	1574.430
64.000	15555.000	1573.670
65.000	15368.000	1572.900
63.000	15197.000	1572.260
64.000	15038.000	1571.880
64.000	14859.000	1571.250
64.000	14694.000	1570.860
64.000	14525.000	1570.610
64.000	14361.000	1570.230
64.000	14193.000	1569.970
80.000	14037.000	1569.590
63.000	13890.000	1569.590
64.000	13729.000	1569.210
64.000	13571.000	1569.080
65.000	13388.000	1568.830
63.000	13188.000	1568.700
64.000	13029.000	1568.570
64.000	12869.000	1568.440
65.000	12714.000	1568.320
63.000	12562.000	1568.190
64.000	12405.000	1568.060
65.000	12290.000	1568.060
79.000	12230.000	1567.930
64.000	12156.000	1567.810
64.000	12239.000	1567.810
64.000	12267.000	1567.810
64.000	12250.000	1567.810
64.000	12231.000	1567.680
64.000	12204.000	1567.680
64.000	12144.000	1567.680
64.000	12022.000	1567.550
64.000	11877.000	1567.430
64.000	11701.000	1567.430
63.000	11491.000	1567.430
81.000	11285.000	1567.300
63.000	11060.000	1567.430
64.000	10881.000	1567.430
65.000	10786.000	1567.300
63.000	10675.000	1567.170
65.000	10587.000	1567.170
64.000	10471.000	1567.170
63.000	10426.000	1567.300
65.000	10334.000	1567.170
64.000	10246.000	1567.170
64.000	10142.000	1567.170
63.000	10058.000	1567.040
80.000	9972.000	1567.040
64.000	9895.000	1567.040
64.000	9827.000	1567.040
64.000	9769.000	1567.170
64.000	9716.000	1567.170
64.000	9666.000	1567.170
64.000	9627.000	1567.040
64.000	9577.000	1567.170
63.000	9543.000	1567.170
65.000	9508.000	1567.170
64.000	9478.000	1567.170
63.000	9441.000	1567.040
80.000	9406.000	1567.040
64.000	9386.000	1567.040
65.000	9355.000	1567.170
64.000	9323.000	1567.170
64.000	9295.000	1567.170
64.000	9275.000	1567.170
64.000	9248.000	1567.170
63.000	9229.000	1567.170
65.000	9204.000	1567.040
64.000	9176.000	1567.040
64.000	9157.000	1567.170
64.000	9133.000	1567.040
79.000	9117.000	1567.170
64.000	9098.000	1567.170
64.000	9079.000	1567.170
64.000	9056.000	1567.040
64.000	9036.000	1567.170
64.000	9025.000	1567.040
64.000	9006.000	1567.040
64.000	8986.000	1567.040
64.000	8965.000	1567.170
64.000	8960.000	1567.170
63.000	8947.000	1567.170
65.000	8931.000	1567.170
80.000	8914.000	1567.170
64.000	8904.000	1567.170
64.000	8889.000	1567.170
64.000	8876.000	1567.040
63.000	8863.000	1567.040
65.000	8848.000	1567.170
63.000	8838.000	1567.170
65.000	8830.000	1567.170
64.000	8818.000	1567.170
63.000	8804.000	1567.170
64.000	8800.000	1567.170
64.000	8786.000	1567.040
80.000	8782.000	1567.040
64.000	8763.000	1567.170
64.000	8757.000	1567.040
64.000	8751.000	1567.040
65.000	8738.000	1567.170
62.000	8734.000	1567.170
65.000	8724.000	1567.170
63.000	8715.000	1567.040
64.000	8712.000	1567.170
64.000	8725.000	1567.170
65.000	8716.000	1567.170
64.000	8716.000	1567.040
79.000	8712.000	1567.170
64.000	8719.000	1567.040
64.000	8721.000	1567.040
65.000	8720.000	1567.170
63.000	8717.000	1567.040
65.000	8722.000	1567.170
64.000	8716.000	1567.170
64.000	8719.000	1567.040
63.000	8722.000	1567.040
65.000	8723.000	1567.040
64.000	8717.000	1567.170
63.000	8716.000	1567.040
80.000	8719.000	1567.170
64.000	8715.000	1567.170
64.000	8721.000	1567.040
64.000	8721.000	1567.170
64.000	8722.000	1567.170
64.000	8718.000	1567.040
64.000	8718.000	1567.170
64.000	8721.000	1567.170
63.000	8719.000	1567.170
64.000	8713.000	1567.170
64.000	8716.000	1567.040
64.000	8723.000	1567.040
80.000	8720.000	1567.170
64.000	8719.000	1567.170
64.000	8715.000	1567.040
64.000	8721.000	1567.170
64.000	8709.000	1567.300
64.000	8711.000	1567.040
64.000	8709.000	1567.040
64.000	8709.000	1567.170
65.000	8713.000	1567.040
63.000	8718.000	1567.040
64.000	8714.000	1567.040
64.000	8709.000	1567.040
81.000	8718.000	1567.040
63.000	8711.000	1567.170
64.000	8722.000	1567.040
64.000	8716.000	1567.040
64.000	8718.000	1567.170
64.000	8714.000	1567.040
64.000	8714.000	1567.040
64.000	8721.000	1567.170
63.000	8714.000	1567.170
65.000	8710.000	1567.170
63.000	8710.000	1567.170
65.000	8717.000	1567.170
80.000	8717.000	1567.170
63.000	8716.000	1567.170
65.000	8714.000	1567.170
64.000	8716.000	1567.040
63.000	8711.000	1567.170
64.000	8705.000	1567.040
64.000	8720.000	1567.170
64.000	8710.000	1567.170
64.000	8714.000	1567.040
64.000	8719.000	1567.040
64.000	8717.000	1567.170
64.000	8710.000	1567.040
80.000	8709.000	1567.040
64.000	8715.000	1567.170
64.000	8710.000	1567.170
64.000	8718.000	1567.040
64.000	8714.000	1567.170
63.000	8711.000	1567.170
65.000	8716.000	1567.040
64.000	8709.000	1567.170
63.000	8710.000	1567.170
64.000	8709.000	1567.170
65.000	8714.000	1567.300
64.000	8708.000	1567.170
79.000	8710.000	1567.170
64.000	8713.000	1567.040
65.000	8714.000	1567.170
64.000	8706.000	1567.170
63.000	8719.000	1567.170
65.000	8703.000	1567.170
63.000	8719.000	1567.040
65.000	8710.000	1567.170
63.000	8712.000	1567.170
64.000	8718.000	1567.040
64.000	8712.000	1567.040
64.000	8714.000	1567.170
80.000	8713.000	1567.170
64.000	8707.000	1567.170
64.000	8707.000	1567.170
64.000	8710.000	1567.040
64.000	8716.000	1567.170
64.000	8711.000	1567.170
64.000	8710.000	1567.170
64.000	8713.000	1567.170
63.000	8722.000	1567.040
65.000	8729.000	1567.170
64.000	8731.000	1567.170
63.000	8741.000	1567.170
81.000	8748.000	1567.300
63.000	8769.000	1567.040
65.000	8771.000	1567.040
64.000	8783.000	1567.040
63.000	8790.000	1567.040
64.000	8794.000	1567.170
64.000	8813.000	1567.040
64.000	8827.000	1567.170
64.000	8832.000	1567.040
64.000	8844.000	1567.170
64.000	8855.000	1567.170
64.000	8871.000	1567.170
80.000	8884.000	1567.170
64.000	8901.000	1567.170
64.000	8903.000	1567.170
64.000	8924.000	1567.040
64.000	8942.000	1567.170
64.000	8947.000	1567.170
64.000	8968.000	1567.170
63.000	8978.000	1567.170
64.000	8993.000	1567.170
65.000	9013.000	1567.170
64.000	9037.000	1567.170
64.000	9059.000	1567.040
80.000	9062.000	1567.170
63.000	9095.000	1567.170
65.000	9113.000	1567.170
64.000	9133.000	1567.170
63.000	9142.000	1567.170
64.000	9169.000	1567.040
64.000	9194.000	1567.170
64.000	9221.000	1567.170
64.000	9242.000	1567.170
64.000	9269.000	1567.040
64.000	9295.000	1567.170
64.000	9321.000	1567.170
81.000	9350.000	1567.170
63.000	9380.000	1567.170
64.000	9414.000	1567.170
64.000	9447.000	1567.170
64.000	9480.000	1567.170
64.000	9513.000	1567.040
64.000	9557.000	1567.040
64.000	9611.000	1567.040
63.000	9653.000	1567.170
64.000	9703.000	1567.170
65.000	9754.000	1567.040
64.000	9806.000	1567.170
79.000	9881.000	1567.170
64.000	9930.000	1567.170
64.000	9996.000	1567.170
65.000	10072.000	1567.170
63.000	10137.000	1567.300
64.000	10208.000	1567.300
65.000	10289.000	1567.300
63.000	10355.000	1567.300
64.000	10436.000	1567.300
65.000	10523.000	1567.430
63.000	10633.000	1567.550
64.000	10745.000	1567.550
80.000	10848.000	1567.680
64.000	10949.000	1567.810
64.000	11053.000	1567.810
64.000	11141.000	1568.060
64.000	11205.000	1568.060
64.000	11242.000	1568.320
64.000	11259.000	1568.320
64.000	11260.000	1568.700
63.000	11271.000	1568.700
65.000	11267.000	1568.830
64.000	11277.000	1569.080
63.000	11274.000	1569.340
81.000	11288.000	1569.460
63.000	11307.000	1569.590
64.000	11334.000	1569.840
64.000	11393.000	1570.230
65.000	11487.000	1570.230
64.000	11674.000	1570.480
63.000	11905.000	1570.610
64.000	12182.000	1570.990
64.000	12451.000	1571.120
65.000	12708.000	1571.370
63.000	12924.000	1571.630
64.000	13115.000	1571.880
80.000	13326.000	1572.010
64.000	13542.000	1572.390
63.000	13747.000	1572.770
65.000	13960.000	1572.900
64.000	14163.000	1573.280
63.000	14264.000	1573.670
65.000	14452.000	1573.790
64.000	14696.000	1574.170
64.000	14860.000	1574.680
64.000	15107.000	1574.940
63.000	15364.000	1575.320
64.000	15534.000	1575.830
81.000	15786.000	1576.340
63.000	15973.000	1576.980
65.000	16036.000	1577.490
63.000	15971.000	1576.080
64.000	15815.000	1574.810
64.000	15648.000	1573.920
64.000	15486.000	1573.160
64.000	15310.000	1572.520
64.000	15139.000	1572.010
64.000	14973.000	1571.630
64.000	14811.000	1571.120
64.000	14671.000	1570.740
80.000	14511.000	1570.350
63.000	14353.000	1570.100
64.000	14210.000	1569.840
64.000	14082.000	1569.590
65.000	13964.000	1569.210
64.000	13856.000	1569.210
63.000	13750.000	1568.950
65.000	13611.000	1568.830
63.000	13467.000	1568.570
65.000	13345.000	1568.440
64.000	13205.000	1568.190
64.000	13092.000	1568.190
80.000	13002.000	1568.190
63.000	12888.000	1567.930
64.000	12808.000	1568.190
64.000	12755.000	1567.810
65.000	12686.000	1567.810
63.000	12633.000	1567.680
64.000	12612.000	1567.810
64.000	12729.000	1567.930
65.000	12728.000	1567.680
63.000	12840.000	1567.680
64.000	12902.000	1567.550
64.000	12847.000	1567.550
80.000	12741.000	1567.550
63.000	12585.000	1567.430
64.000	12371.000	1567.430
65.000	12136.000	1567.300
64.000	11920.000	1567.300
64.000	11727.000	1567.300
64.000	11540.000	1567.300
64.000	11362.000	1567.300
63.000	11195.000	1567.170
65.000	11058.000	1567.300
64.000	10928.000	1567.040
63.000	10798.000	1567.040
81.000	10675.000	1567.170
64.000	10578.000	1567.170
63.000	10490.000	1567.170
64.000	10409.000	1567.170
64.000	10359.000	1567.170
64.000	10304.000	1567.170
64.000	10249.000	1567.040
64.000	10190.000	1567.040
64.000	10144.000	1567.040
64.000	10094.000	1567.170
64.000	10051.000	1567.170
64.000	10007.000	1567.170
80.000	9971.000	1567.040
64.000	9942.000	1567.170
64.000	9904.000	1567.040
64.000	9864.000	1567.040
63.000	9830.000	1567.300
65.000	9802.000	1567.170
64.000	9775.000	1567.170
64.000	9731.000	1567.170
63.000	9711.000	1567.170
64.000	9686.000	1567.170
64.000	9659.000	1567.170
65.000	9636.000	1567.040
79.000	9619.000	1567.170
64.000	9592.000	1567.040
64.000	9568.000	1567.170
64.000	9550.000	1567.170
64.000	9523.000	1567.170
64.000	9500.000	1567.300
66.000	9481.000	1567.170
62.000	9461.000	1567.170
64.000	9453.000	1567.170
64.000	9424.000	1567.040
64.000	9404.000	1567.170
64.000	9392.000	1567.040
80.000	9374.000	1567.040
64.000	9355.000	1567.170
64.000	9342.000	1567.040
64.000	9328.000	1567.040
64.000	9319.000	1567.170
64.000	9298.000	1567.040
63.000	9282.000	1567.040
64.000	9270.000	1567.170
65.000	9257.000	1567.040
63.000	9252.000	1567.170
64.000	9233.000	1567.040
64.000	9222.000	1567.170
80.000	9211.000	1567.170
64.000	9195.000	1567.170
64.000	9182.000	1567.170
65.000	9171.000	1567.040
63.000	9165.000	1567.170
65.000	9155.000	1567.040
63.000	9150.000	1567.170
64.000	9135.000	1567.170
64.000	9118.000	1567.170
64.000	9110.000	1567.170
64.000	9103.000	1567.040
64.000	9111.000	1567.170
80.000	9108.000	1567.170
64.000	9108.000	1567.040
64.000	9105.000	1567.170
63.000	9104.000	1567.170
65.000	9099.000	1567.170
64.000	9099.000	1567.170
63.000	9094.000	1567.170
65.000	9103.000	1567.300
64.000	9097.000	1567.170
63.000	9099.000	1567.170
64.000	9093.000	1567.300
64.000	9095.000	1567.170
81.000	9095.000	1567.170
63.000	9096.000	1567.170
65.000	9094.000	1567.300
63.000	9087.000	1567.170
65.000	9082.000	1567.040
63.000	9081.000	1567.040
64.000	9084.000	1567.040
64.000	9081.000	1567.170
64.000	9083.000	1567.170
64.000	9074.000	1567.170
64.000	9080.000	1567.040
64.000	9078.000	1567.170
80.000	9069.000	1567.170
64.000	9062.000	1567.170
64.000	9061.000	1567.170
64.000	9066.000	1567.170
64.000	9053.000	1567.170
64.000	9052.000	1567.170
64.000	9046.000	1567.170
63.000	9053.000	1567.040
65.000	9037.000	1567.170
63.000	9037.000	1567.170
64.000	9041.000	1567.170
65.000	9040.000	1567.170
80.000	9039.000	1567.170
63.000	9027.000	1567.170
64.000	9030.000	1567.040
64.000	9021.000	1567.040
64.000	9022.000	1567.170
64.000	9025.000	1567.170
64.000	9005.000	1567.170
63.000	9017.000	1567.040
65.000	9005.000	1567.170
64.000	9000.000	1567.040
63.000	9000.000	1567.040
65.000	9001.000	1567.170
80.000	8995.000	1567.170
64.000	8990.000	1567.040
64.000	8982.000	1567.040
64.000	8984.000	1567.170
64.000	8974.000	1567.040
64.000	8973.000	1567.040
63.000	8970.000	1567.040
64.000	8970.000	1567.040
64.000	8967.000	1567.040
64.000	8960.000	1567.170
64.000	8963.000	1567.170
64.000	8964.000	1567.170
80.000	8962.000	1567.040
64.000	8953.000	1567.170
65.000	8955.000	1567.300
63.000	8958.000	1567.170
65.000	8951.000	1567.170
63.000	8957.000	1567.170
64.000	8952.000	1567.170
64.000	8951.000	1567.040
64.000	8949.000	1567.040
64.000	8943.000	1567.170
64.000	8943.000	1567.170
63.000	8940.000	1567.170
81.000	8945.000	1567.040
63.000	8944.000	1567.040
64.000	8943.000	1567.170
64.000	8944.000	1567.170
65.000	8930.000	1567.040
64.000	8938.000	1567.170
63.000	8933.000	1567.170
64.000	8940.000	1567.170
65.000	8932.000	1567.040
64.000	8921.000	1567.170
64.000	8732.000	1567.170
64.000	8541.000	1567.040
79.000	8432.000	1567.300
64.000	8368.000	1567.170
64.000	8331.000	1567.040
64.000	8293.000	1567.170
64.000	8260.000	1567.170
64.000	8239.000	1567.040
64.000	8218.000	1567.040
64.000	8205.000	1567.040
64.000	8190.000	1567.170
64.000	8179.000	1567.170
64.000	8169.000	1567.040
64.000	8166.000	1567.170
80.000	8165.000	1567.170
64.000	8164.000	1567.170
64.000	8168.000	1567.170
64.000	8169.000	1567.170
63.000	8171.000	1567.170
64.000	8174.000	1567.170
65.000	8174.000	1567.170
63.000	8186.000	1567.040
65.000	8188.000	1567.040
64.000	8188.000	1567.170
64.000	8188.000	1567.170
64.000	8196.000	1567.170
80.000	8205.000	1567.170
63.000	8210.000	1567.170
64.000	8217.000	1567.170
64.000	8228.000	1567.170
64.000	8236.000	1567.170
64.000	8246.000	1567.170
64.000	8256.000	1567.040
64.000	8267.000	1567.040
64.000	8284.000	1567.040
64.000	8291.000	1567.170
64.000	8300.000	1567.040
64.000	8319.000	1567.170
80.000	8334.000	1567.040
64.000	8350.000	1567.170
64.000	8368.000	1567.170
64.000	8379.000	1567.170
64.000	8395.000	1567.170
64.000	8420.000	1567.170
64.000	8429.000	1567.170
64.000	8442.000	1567.040
63.000	8460.000	1567.300
64.000	8493.000	1567.170
65.000	8498.000	1567.170
63.000	8522.000	1567.170
80.000	8555.000	1567.170
64.000	8577.000	1567.040
64.000	8605.000	1567.040
65.000	8633.000	1567.170
63.000	8667.000	1567.170
64.000	8698.000	1567.170
64.000	8729.000	1567.040
64.000	8752.000	1567.170
64.000	8792.000	1567.040
64.000	8825.000	1567.170
64.000	8869.000	1567.170
64.000	8916.000	1567.170
80.000	8965.000	1567.170
64.000	9011.000	1567.040
63.000	9073.000	1567.170
64.000	9118.000	1567.170
64.000	9179.000	1567.300
65.000	9243.000	1567.170
64.000	9311.000	1567.170
64.000	9373.000	1567.170
63.000	9450.000	1567.300
64.000	9520.000	1567.300
64.000	9588.000	1567.430
64.000	9670.000	1567.550
80.000	9753.000	1567.430
65.000	9872.000	1567.680
64.000	9978.000	1567.680
63.000	10056.000	1567.810
64.000	10159.000	1567.810
65.000	10235.000	1567.930
63.000	10308.000	1567.930
65.000	10339.000	1568.190
63.000	10342.000	1568.320
63.000	10341.000	1568.440
64.000	10352.000	1568.570
65.000	10352.000	1568.830
79.000	10356.000	1568.950
65.000	10367.000	1569.080
64.000	10373.000	1569.340
64.000	10413.000	1569.590
64.000	10444.000	1569.840
63.000	10490.000	1569.970
65.000	10576.000	1570.230
64.000	10726.000	1570.350
64.000	10922.000	1570.480
63.000	11128.000	1570.860
65.000	11365.000	1570.990
63.000	11578.000	1571.370
80.000	11785.000	1571.500
64.000	11993.000	1571.750
64.000	12209.000	1572.010
64.000	12384.000	1572.260
63.000	12588.000	1572.650
65.000	12844.000	1572.900
64.000	12938.000	1573.160
64.000	13084.000	1573.410
63.000	13282.000	1573.670
64.000	13455.000	1574.050
65.000	13743.000	1574.430
63.000	14071.000	1574.680
81.000	14478.000	1575.070
63.000	14741.000	1575.580
65.000	15027.000	1576.210
63.000	15239.000	1576.590
65.000	15525.000	1577.490
64.000	15674.000	1577.360
64.000	15468.000	1575.830
63.000	15179.000	1574.560
65.000	14972.000	1573.790
63.000	14800.000	1572.900
64.000	14639.000	1572.390
64.000	14482.000	1571.880
80.000	14323.000	1571.500
65.000	14162.000	1571.120
62.000	14008.000	1570.610
65.000	13857.000	1570.350
63.000	13691.000	1570.100
65.000	13525.000	1569.840
64.000	13365.000	1569.590
63.000	13205.000	1569.340
64.000	13032.000	1568.950
65.000	12826.000	1568.830
63.000	12611.000	1568.700
65.000	12425.000	1568.570
79.000	12251.000	1568.440
64.000	12100.000	1568.320
64.000	11968.000	1568.320
65.000	11834.000	1568.060
63.000	11687.000	1568.060
64.000	11575.000	1567.930
64.000	11500.000	1567.930
64.000	11581.000	1567.810
64.000	11674.000	1567.810
64.000	11741.000	1567.810
64.000	11752.000	1567.810
64.000	11736.000	1567.680
80.000	11653.000	1567.680
64.000	11563.000	1567.550
64.000	11431.000	1567.550
64.000	11250.000	1567.550
64.000	11042.000	1567.550
64.000	10822.000	1567.430
64.000	10578.000	1567.430
63.000	10381.000	1567.430
65.000	10262.000	1567.300
64.000	10151.000	1567.300
64.000	10040.000	1567.170
64.000	9939.000	1567.300
80.000	9957.000	1567.170
63.000	9866.000	1567.170
64.000	9759.000	1567.170
65.000	9678.000	1567.170
63.000	9619.000	1567.170
65.000	9543.000	1567.170
63.000	9493.000	1567.170
64.000	9440.000	1567.170
64.000	9394.000	1567.170
65.000	9344.000	1567.040
63.000	9301.000	1567.170
64.000	9257.000	1567.040
80.000	9221.000	1567.300
63.000	9195.000	1567.170
65.000	9159.000	1567.170
64.000	9128.000	1567.170
64.000	9096.000	1567.170
63.000	9069.000	1567.040
65.000	9040.000	1567.040
64.000	9015.000	1567.040
64.000	8988.000	1567.170
64.000	8961.000	1567.040
64.000	8951.000	1567.040
64.000	8920.000	1567.170
79.000	8912.000	1567.170
64.000	8886.000	1567.170
64.000	8862.000	1567.040
64.000	8843.000	1567.170
65.000	8821.000	1567.170
64.000	8808.000	1567.300
64.000	8783.000	1567.170
63.000	8768.000	1567.170
65.000	8753.000	1567.170
64.000	8742.000	1567.170
63.000	8730.000	1567.170
64.000	8709.000	1567.170
80.000	8694.000	1567.170
64.000	8685.000	1567.040
64.000	8669.000	1567.170
64.000	8655.000	1567.040
64.000	8643.000	1567.040
64.000	8623.000	1567.170
63.000	8615.000	1567.040
65.000	8605.000	1567.170
63.000	8595.000	1567.170
65.000	8578.000	1567.170
64.000	8562.000	1567.170
63.000	8551.000	1567.040
80.000	8543.000	1567.170
64.000	8543.000	1567.170
64.000	8523.000	1567.170
64.000	8514.000	1567.170
64.000	8509.000	1567.170
64.000	8497.000	1567.170
65.000	8481.000	1567.170
64.000	8479.000	1567.040
64.000	8466.000	1567.300
63.000	8459.000	1567.170
64.000	8459.000	1567.040
65.000	8450.000	1567.170
79.000	8436.000	1567.170
64.000	8433.000	1567.170
64.000	8433.000	1567.170
64.000	8439.000	1567.170
64.000	8435.000	1567.040
64.000	8435.000	1567.170
64.000	8439.000	1567.170
65.000	8440.000	1567.170
62.000	8435.000	1567.170
65.000	8441.000	1567.040
63.000	8439.000	1567.300
65.000	8434.000	1567.170
80.000	8436.000	1567.170
63.000	8443.000	1567.170
64.000	8446.000	1567.170
64.000	8438.000	1567.170
64.000	8439.000	1567.040
64.000	8442.000	1567.170
65.000	8447.000	1567.170
64.000	8436.000	1567.170
63.000	8444.000	1567.170
64.000	8440.000	1567.170
64.000	8439.000	1567.170
64.000	8442.000	1567.170
80.000	8441.000	1567.170
64.000	8442.000	1567.170
64.000	8445.000	1567.040
63.000	8436.000	1567.170
65.000	8438.000	1567.040
64.000	8444.000	1567.170
63.000	8444.000	1567.170
65.000	8444.000	1567.040
63.000	8443.000	1567.170
64.000	8443.000	1567.040
64.000	8440.000	1567.300
64.000	8438.000	1567.040
81.000	8437.000	1567.040
63.000	8443.000	1567.170
64.000	8442.000	1567.170
64.000	8444.000	1567.040
65.000	8437.000	1567.040
63.000	8443.000	1567.170
64.000	8440.000	1567.170
64.000	8445.000	1567.170
64.000	8439.000	1567.170
64.000	8440.000	1567.170
64.000	8439.000	1567.040
64.000	8440.000	1567.170
80.000	8441.000	1567.170
64.000	8441.000	1567.170
64.000	8441.000	1567.170
64.000	8443.000	1567.040
64.000	8437.000	1567.040
65.000	8434.000	1566.920
63.000	8437.000	1567.040
64.000	8436.000	1567.040
64.000	8438.000	1567.170
64.000	8439.000	1567.040
64.000	8433.000	1567.170
63.000	8434.000	1567.170
80.000	8437.000	1567.170
65.000	8439.000	1567.040
63.000	8442.000	1567.170
64.000	8434.000	1567.040
64.000	8438.000	1567.170
64.000	8440.000	1567.300
65.000	8439.000	1567.170
63.000	8438.000	1567.170
64.000	8437.000	1567.040
64.000	8435.000	1567.170
64.000	8441.000	1567.170
64.000	8439.000	1567.170
80.000	8433.000	1567.170
64.000	8427.000	1567.170
63.000	8437.000	1567.040
65.000	8434.000	1567.170
64.000	8435.000	1567.170
64.000	8434.000	1567.040
65.000	8441.000	1567.170
62.000	8439.000	1567.170
65.000	8433.000	1567.170
63.000	8435.000	1567.040
65.000	8433.000	1567.040
64.000	8437.000	1567.170
80.000	8433.000	1567.170
63.000	8435.000	1567.170
64.000	8434.000	1567.040
65.000	8433.000	1567.170
63.000	8435.000	1567.170
64.000	8431.000	1567.040
64.000	8438.000	1567.040
64.000	8436.000	1567.170
64.000	8429.000	1567.040
64.000	8431.000	1567.170
64.000	8431.000	1567.170
64.000	8430.000	1567.300
80.000	8433.000	1567.170
64.000	8433.000	1567.170
64.000	8445.000	1567.170
64.000	8447.000	1567.170
63.000	8460.000	1567.040
65.000	8470.000	1567.170
64.000	8478.000	1567.170
63.000	8489.000	1567.170
65.000	8492.000	1567.040
63.000	8504.000	1567.170
65.000	8517.000	1567.170
63.000	8515.000	1567.040
81.000	8542.000	1567.170
63.000	8547.000	1567.170
64.000	8562.000	1567.040
64.000	8575.000	1567.170
64.000	8586.000	1567.170
64.000	8599.000	1567.170
65.000	8611.000	1567.170
63.000	8629.000	1567.170
64.000	8635.000	1567.170
64.000	8662.000	1567.170
64.000	8676.000	1567.040
79.000	8680.000	1567.170
64.000	8693.000	1567.040
65.000	8710.000	1567.170
64.000	8730.000	1567.170
63.000	8748.000	1567.170
65.000	8761.000	1567.170
64.000	8785.000	1567.170
63.000	8793.000	1567.040
64.000	8819.000	1567.170
64.000	8844.000	1567.170
64.000	8860.000	1567.170
65.000	8887.000	1567.170
80.000	8907.000	1567.170
63.000	8919.000	1567.170
64.000	8950.000	1567.170
64.000	8973.000	1567.170
65.000	8992.000	1567.170
63.000	9026.000	1567.170
64.000	9048.000	1567.040
64.000	9086.000	1567.170
64.000	9117.000	1567.040
63.000	9145.000	1567.040
65.000	9180.000	1567.040
64.000	9207.000	1567.040
80.000	9252.000	1567.170
64.000	9290.000	1567.170
64.000	9333.000	1567.040
64.000	9380.000	1567.040
64.000	9439.000	1567.040
64.000	9493.000	1567.170
64.000	9544.000	1567.170
63.000	9596.000	1567.170
64.000	9663.000	1567.170
64.000	9725.000	1567.170
65.000	9790.000	1567.300
63.000	9857.000	1567.170
80.000	9939.000	1567.430
64.000	10006.000	1567.300
64.000	10085.000	1567.300
65.000	10164.000	1567.430
63.000	10267.000	1567.550
65.000	10383.000	1567.550
63.000	10482.000	1567.680
64.000	10579.000	1567.680
64.000	10665.000	1567.810
64.000	10756.000	1567.930
64.000	10834.000	1567.930
65.000	10898.000	1568.190
79.000	10903.000	1568.320
64.000	10901.000	1568.570
64.000	10902.000	1568.700
64.000	10894.000	1568.830
64.000	10896.000	1568.950
64.000	10912.000	1569.210
63.000	10949.000	1569.340
65.000	10982.000	1569.460
63.000	11012.000	1569.720
64.000	11052.000	1569.970
64.000	11133.000	1570.100
64.000	11280.000	1570.230
80.000	11494.000	1570.480
65.000	11750.000	1570.860
63.000	12018.000	1570.990
64.000	12266.000	1571.250
64.000	12477.000	1571.500
64.000	12688.000	1571.630
64.000	12926.000	1572.010
63.000	13123.000	1572.260
65.000	13347.000	1572.390
64.000	13606.000	1572.770
64.000	13801.000	1573.160
64.000	13945.000	1573.410
80.000	14134.000	1573.790
64.000	14383.000	1574.050
63.000	14587.000	1574.560
64.000	14892.000	1574.680
64.000	15202.000	1575.070
65.000	15405.000	1575.580
64.000	15655.000	1575.960
63.000	15857.000	1576.720
65.000	15961.000	1577.360
63.000	15977.000	1577.360
64.000	15828.000	1575.700
65.000	15673.000	1574.430
79.000	15509.000	1573.670
64.000	15347.000	1572.900
64.000	15180.000	1572.260
64.000	14996.000	1571.880
64.000	14836.000	1571.250
64.000	14668.000	1570.990
64.000	14513.000	1570.610
64.000	14361.000	1570.230
64.000	14198.000	1569.970
64.000	14049.000	1569.720
64.000	13919.000	1569.460
63.000	13795.000	1569.340
80.000	13654.000	1569.080
65.000	13466.000	1568.950
64.000	13289.000	1568.700
64.000	13140.000	1568.570
63.000	12993.000	1568.440
65.000	12851.000	1568.190
63.000	12727.000	1568.190
65.000	12600.000	1568.190
63.000	12503.000	1568.060
65.000	12420.000	1567.930
63.000	12339.000	1567.810
64.000	12288.000	1567.930
80.000	12412.000	1567.810
65.000	12495.000	1567.810
64.000	12558.000	1567.680
63.000	12588.000	1567.550
64.000	12569.000	1567.680
64.000	12507.000	1567.550
65.000	12365.000	1567.550
63.000	12224.000	1567.550
64.000	12023.000	1567.430
64.000	11852.000	1567.430
64.000	11578.000	1567.300
64.000	11385.000	1567.430
80.000	11194.000	1567.300
64.000	11051.000	1567.300
64.000	10921.000	1567.300
63.000	10806.000	1567.170
64.000	10673.000	1567.300
64.000	10554.000	1567.170
64.000	10448.000	1567.170
64.000	10346.000	1567.040
64.000	10268.000	1567.170
64.000	10184.000	1567.170
64.000	10114.000	1567.170
64.000	10054.000	1567.170
80.000	9999.000	1567.040
64.000	9946.000	1567.170
64.000	9901.000	1567.170
64.000	9848.000	1567.170
64.000	9801.000	1567.170
63.000	9762.000	1567.170
65.000	9726.000	1567.170
63.000	9695.000	1567.170
65.000	9661.000	1567.170
64.000	9626.000	1567.170
63.000	9587.000	1567.040
65.000	9553.000	1567.170
80.000	9519.000	1567.170
63.000	9489.000	1567.170
64.000	9467.000	1567.170
64.000	9443.000	1567.170
64.000	9413.000	1567.170
64.000	9402.000	1567.040
64.000	9372.000	1567.170
65.000	9354.000	1567.300
64.000	9323.000	1567.170
64.000	9308.000	1567.170
64.000	9290.000	1567.170
63.000	9258.000	1567.300
80.000	9245.000	1567.170
64.000	9223.000	1567.040
64.000	9204.000	1567.040
64.000	9186.000	1567.170
64.000	9166.000	1567.170
64.000	9146.000	1567.170
64.000	9118.000	1567.040
63.000	9105.000	1567.040
65.000	9085.000	1567.300
63.000	9061.000	1567.300
65.000	9044.000	1567.040
64.000	9027.000	1567.170
79.000	9008.000	1567.170
65.000	9000.000	1567.040
64.000	8981.000	1567.300
64.000	8965.000	1567.040
63.000	8949.000	1567.170
65.000	8938.000	1567.170
63.000	8929.000	1567.170
65.000	8914.000	1567.170
63.000	8901.000	1567.170
64.000	8893.000	1567.170
65.000	8884.000	1567.170
64.000	8862.000	1567.170
79.000	8852.000	1567.170
64.000	8855.000	1567.300
64.000	8840.000	1567.040
64.000	8825.000	1567.170
64.000	8818.000	1567.170
64.000	8807.000	1567.170
65.000	8804.000	1567.170
63.000	8821.000	1567.170
64.000	8807.000	1567.170
63.000	8809.000	1567.170
65.000	8803.000	1567.040
64.000	8807.000	1567.170
80.000	8804.000	1567.170
63.000	8799.000	1567.040
64.000	8794.000	1567.170
64.000	8800.000	1567.170
64.000	8803.000	1567.170
65.000	8804.000	1567.040
63.000	8799.000	1567.170
64.000	8796.000	1567.170
64.000	8798.000	1567.170
64.000	8793.000	1567.170
64.000	8797.000	1567.170
64.000	8795.000	1567.040
80.000	8803.000	1567.040
64.000	8795.000	1567.040
64.000	8792.000	1567.170
64.000	8791.000	1567.040
63.000	8790.000	1567.170
65.000	8788.000	1567.300
63.000	8791.000	1567.170
65.000	8789.000	1567.170
63.000	8783.000	1567.170
65.000	8785.000	1567.170
64.000	8775.000	1567.170
64.000	8776.000	1567.170
79.000	8779.000	1567.170
64.000	8786.000	1567.170
65.000	8777.000	1567.040
64.000	8776.000	1567.170
63.000	8776.000	1567.040
65.000	8768.000	1567.040
64.000	8596.000	1567.170
63.000	8368.000	1567.170
64.000	8262.000	1567.170
64.000	8194.000	1567.040
64.000	8153.000	1567.170
64.000	8117.000	1567.040
80.000	8086.000	1567.170
64.000	8059.000	1567.170
64.000	8044.000	1567.300
64.000	8031.000	1567.300
63.000	8021.000	1567.170
65.000	8009.000	1567.170
64.000	7997.000	1567.170
64.000	7987.000	1567.170
64.000	7981.000	1567.040
64.000	7971.000	1567.040
63.000	7962.000	1567.040
65.000	7952.000	1567.170
80.000	7942.000	1567.170
63.000	7939.000	1567.170
65.000	7938.000	1567.170
64.000	7928.000	1567.170
63.000	7926.000	1567.040
64.000	7920.000	1567.170
64.000	7914.000	1567.170
64.000	7912.000	1567.040
65.000	7910.000	1567.040
64.000	7910.000	1567.170
63.000	7910.000	1567.170
64.000	7904.000	1567.170
80.000	7900.000	1567.170
64.000	7904.000	1567.170
64.000	7898.000	1567.170
64.000	7891.000	1567.040
64.000	7893.000	1567.170
64.000	7892.000	1567.170
64.000	7889.000	1567.170
64.000	7889.000	1567.170
64.000	7892.000	1567.170
64.000	7879.000	1567.040
63.000	7885.000	1567.170
65.000	7879.000	1567.040
79.000	7879.000	1567.170
64.000	7879.000	1567.040
64.000	7874.000	1567.170
65.000	7874.000	1567.170
64.000	7870.000	1567.170
63.000	7870.000	1567.170
64.000	7871.000	1567.300
65.000	7869.000	1567.170
63.000	7865.000	1567.040
64.000	7865.000	1567.170
65.000	7866.000	1567.170
63.000	7863.000	1567.040
80.000	7861.000	1567.170
64.000	7866.000	1567.170
64.000	7861.000	1567.040
64.000	7863.000	1567.040
64.000	7860.000	1567.170
64.000	7866.000	1567.040
64.000	7877.000	1567.040
64.000	7884.000	1567.170
64.000	7890.000	1567.170
64.000	7897.000	1567.040
64.000	7907.000	1567.170
64.000	7916.000	1567.170
80.000	7926.000	1567.170
64.000	7936.000	1567.170
64.000	7948.000	1567.040
63.000	7956.000	1567.040
64.000	7963.000	1567.040
64.000	7975.000	1567.040
64.000	7989.000	1567.170
65.000	7998.000	1567.170
64.000	8010.000	1567.170
63.000	8018.000	1567.300
64.000	8031.000	1567.170
65.000	8049.000	1567.040
79.000	8058.000	1567.170
65.000	8071.000	1567.170
63.000	8093.000	1567.170
64.000	8100.000	1567.170
64.000	8116.000	1567.170
64.000	8126.000	1567.040
64.000	8148.000	1567.170
63.000	8162.000	1567.170
65.000	8182.000	1567.170
64.000	8201.000	1567.040
63.000	8216.000	1567.170
65.000	8236.000	1567.170
80.000	8252.000	1567.170
63.000	8277.000	1567.170
65.000	8296.000	1567.040
64.000	8320.000	1567.170
64.000	8338.000	1567.040
64.000	8364.000	1567.040
63.000	8387.000	1567.170
64.000	8407.000	1567.170
64.000	8432.000	1567.170
64.000	8458.000	1567.170
64.000	8500.000	1567.170
64.000	8506.000	1567.170
80.000	8552.000	1567.170
64.000	8580.000	1567.040
64.000	8617.000	1567.170
64.000	8646.000	1567.170
64.000	8693.000	1567.170
64.000	8730.000	1567.040
64.000	8784.000	1567.170
63.000	8824.000	1567.300
66.000	8886.000	1567.170
63.000	8944.000	1567.170
63.000	8979.000	1567.170
64.000	9044.000	1567.300
80.000	9112.000	1567.170
65.000	9188.000	1567.170
63.000	9253.000	1567.170
65.000	9321.000	1567.300
63.000	9383.000	1567.300
64.000	9457.000	1567.430
64.000	9549.000	1567.430
64.000	9659.000	1567.430
64.000	9756.000	1567.550
64.000	9854.000	1567.680
64.000	9936.000	1567.680
63.000	10035.000	1567.930
81.000	10106.000	1567.930
64.000	10176.000	1568.060
64.000	10205.000	1568.190
64.000	10197.000	1568.320
64.000	10201.000	1568.570
64.000	10205.000	1568.570
64.000	10216.000	1568.830
63.000	10239.000	1568.950
64.000	10260.000	1569.210
64.000	10290.000	1569.460
65.000	10320.000	1569.590
63.000	10383.000	1569.840
81.000	10440.000	1569.970
63.000	10545.000	1570.230
64.000	10719.000	1570.230
64.000	10925.000	1570.480
64.000	11154.000	1570.860
64.000	11385.000	1571.120
64.000	11586.000	1571.370
64.000	11795.000	1571.500
64.000	11976.000	1571.880
64.000	12163.000	1572.010
63.000	12393.000	1572.260
65.000	12629.000	1572.650
80.000	12789.000	1572.900
64.000	12899.000	1573.160
64.000	13050.000	1573.410
64.000	13192.000	1573.790
64.000	13472.000	1574.170
63.000	13744.000	1574.430
66.000	14140.000	1574.940
63.000	14401.000	1575.190
63.000	14721.000	1575.580
64.000	14970.000	1576.210
64.000	15285.000	1576.850
64.000	15453.000	1577.610
80.000	15259.000	1577.100
64.000	15084.000	1575.450
64.000	14888.000	1574.300
64.000	14708.000	1573.540
64.000	14550.000	1572.900
64.000	14399.000	1572.260
64.000	14220.000	1571.630
63.000	14073.000	1571.250
65.000	13923.000	1570.990
64.000	13769.000	1570.480
64.000	13606.000	1570.230
63.000	13468.000	1569.970
81.000	13314.000	1569.720
64.000	13169.000	1569.340
64.000	13012.000	1569.210
63.000	12831.000	1568.950
64.000	12613.000	1568.830
64.000	12426.000	1568.700
65.000	12236.000	1568.440
63.000	12090.000	1568.440
65.000	11916.000	1568.320
64.000	11786.000	1568.060
63.000	11618.000	1568.190
64.000	11494.000	1567.930
80.000	11407.000	1567.930
64.000	11385.000	1567.930
64.000	11478.000	1567.810
64.000	11583.000	1567.680
65.000	11674.000	1567.550
63.000	11652.000	1567.680
64.000	11642.000	1567.680
64.000	11568.000	1567.680
64.000	11467.000	1567.550
64.000	11300.000	1567.550
64.000	11133.000	1567.430
64.000	10913.000	1567.430
80.000	10674.000	1567.300
63.000	10436.000	1567.300
65.000	10255.000	1567.430
64.000	10083.000	1567.300
65.000	9998.000	1567.300
62.000	9904.000	1567.170
65.000	9806.000	1567.300
64.000	9834.000	1567.170
63.000	9745.000	1567.300
64.000	9643.000	1567.040
65.000	9575.000	1567.170
63.000	9498.000	1567.170
80.000	9438.000	1567.170
64.000	9372.000	1567.170
64.000	9319.000	1567.040
64.000	9279.000	1567.170
64.000	9232.000	1567.170
64.000	9189.000	1567.170
64.000	9146.000	1567.170
64.000	9113.000	1567.040
64.000	9077.000	1567.170
63.000	9046.000	1567.040
64.000	9021.000	1567.170
65.000	8991.000	1567.170
79.000	8970.000	1567.040
65.000	8945.000	1567.170
63.000	8915.000	1567.170
65.000	8896.000	1567.170
64.000	8863.000	1567.170
64.000	8846.000	1567.040
63.000	8825.000	1567.170
65.000	8797.000	1567.170
63.000	8783.000	1567.170
64.000	8768.000	1567.040
64.000	8753.000	1567.170
64.000	8730.000	1567.300
80.000	8723.000	1567.170
64.000	8692.000	1567.170
65.000	8676.000	1567.040
63.000	8660.000	1567.170
64.000	8641.000	1567.040
64.000	8634.000	1567.040
64.000	8610.000	1567.170
64.000	8600.000	1567.040
63.000	8591.000	1567.170
65.000	8573.000	1567.170
64.000	8555.000	1567.170
63.000	8545.000	1567.170
81.000	8527.000	1567.170
64.000	8512.000	1567.170
64.000	8497.000	1567.170
63.000	8490.000	1567.040
65.000	8483.000	1567.170
63.000	8469.000	1567.040
64.000	8461.000	1567.170
64.000	8452.000	1567.170
65.000	8437.000	1567.300
63.000	8433.000	1567.040
64.000	8421.000	1567.170
64.000	8419.000	1567.170
81.000	8404.000	1567.170
63.000	8396.000	1567.040
64.000	8387.000	1567.170
64.000	8374.000	1567.300
64.000	8366.000	1567.170
64.000	8362.000	1567.040
64.000	8353.000	1567.170
64.000	8348.000	1567.170
64.000	8337.000	1567.170
64.000	8344.000	1567.040
64.000	8346.000	1567.170
63.000	8346.000	1567.040
81.000	8350.000	1567.170
63.000	8344.000	1567.170
65.000	8347.000	1567.170
64.000	8344.000	1567.170
64.000	8344.000	1567.040
63.000	8344.000	1567.170
64.000	8346.000	1567.170
64.000	8344.000	1567.170
64.000	8345.000	1567.170
65.000	8346.000	1567.170
63.000	8350.000	1567.170
64.000	8349.000	1567.170
80.000	8350.000	1567.170
64.000	8347.000	1567.170
64.000	8353.000	1567.170
64.000	8347.000	1567.170
64.000	8347.000	1567.170
64.000	8352.000	1567.040
65.000	8345.000	1567.170
63.000	8351.000	1567.040
64.000	8348.000	1567.040
64.000	8349.000	1567.170
63.000	8349.000	1567.170
65.000	8348.000	1567.040
80.000	8340.000	1567.170
64.000	8344.000	1567.170
63.000	8348.000	1567.170
65.000	8343.000	1567.040
64.000	8350.000	1566.920
63.000	8346.000	1567.170
64.000	8346.000	1567.040
64.000	8340.000	1567.170
65.000	8341.000	1567.040
63.000	8343.000	1567.170
65.000	8342.000	1567.040
64.000	8340.000	1567.170
79.000	8343.000	1567.040
64.000	8345.000	1567.170
64.000	8346.000	1567.040
64.000	8344.000	1567.040
64.000	8342.000	1567.040
64.000	8343.000	1567.040
64.000	8346.000	1567.170
64.000	8343.000	1567.170
64.000	8344.000	1567.040
64.000	8339.000	1567.170
64.000	8345.000	1567.170
64.000	8348.000	1567.170
79.000	8343.000	1567.170
64.000	8352.000	1567.170
64.000	8343.000	1567.170
64.000	8346.000	1567.170
65.000	8344.000	1567.040
63.000	8341.000	1567.170
64.000	8338.000	1567.170
65.000	8345.000	1567.170
63.000	8340.000	1567.040
64.000	8345.000	1567.040
64.000	8340.000	1567.170
64.000	8345.000	1567.170
80.000	8339.000	1567.040
64.000	8345.000	1567.170
64.000	8343.000	1567.170
64.000	8344.000	1567.170
64.000	8346.000	1567.040
64.000	8344.000	1567.170
64.000	8342.000	1567.040
64.000	8346.000	1567.040
64.000	8345.000	1567.170
64.000	8344.000	1567.040
64.000	8346.000	1567.040
64.000	8348.000	1567.040
79.000	8342.000	1567.040
64.000	8347.000	1567.170
64.000	8347.000	1567.040
64.000	8343.000	1567.170
65.000	8340.000	1567.170
63.000	8342.000	1567.040
64.000	8345.000	1567.170
64.000	8341.000	1567.170
64.000	8344.000	1567.040
64.000	8347.000	1567.040
64.000	8344.000	1567.040
64.000	8345.000	1567.170
80.000	8343.000	1567.170
65.000	8347.000	1567.040
63.000	8344.000	1567.170
64.000	8346.000	1567.170
64.000	8351.000	1567.170
64.000	8346.000	1567.170
63.000	8344.000	1567.170
65.000	8342.000	1567.170
63.000	8355.000	1567.300
64.000	8356.000	1567.170
64.000	8370.000	1567.040
65.000	8382.000	1567.040
80.000	8389.000	1567.170
63.000	8397.000	1567.170
64.000	8399.000	1567.170
65.000	8418.000	1567.170
63.000	8425.000	1567.040
64.000	8438.000	1567.170
64.000	8442.000	1567.040
64.000	8455.000	1567.040
64.000	8470.000	1567.040
63.000	8475.000	1567.040
65.000	8493.000	1567.040
80.000	8497.000	1567.170
64.000	8512.000	1567.170
64.000	8530.000	1567.040
63.000	8537.000	1567.170
65.000	8551.000	1567.170
63.000	8564.000	1567.170
64.000	8586.000	1567.300
65.000	8596.000	1567.170
64.000	8611.000	1567.040
64.000	8627.000	1567.170
63.000	8638.000	1567.170
65.000	8663.000	1567.170
63.000	8674.000	1567.170
80.000	8692.000	1567.170
64.000	8720.000	1567.170
65.000	8735.000	1567.170
63.000	8752.000	1567.170
64.000	8770.000	1567.170
64.000	8794.000	1567.040
64.000	8808.000	1567.170
64.000	8836.000	1567.170
64.000	8865.000	1567.170
64.000	8876.000	1567.040
63.000	8914.000	1567.170
65.000	8939.000	1567.040
80.000	8965.000	1567.040
63.000	8994.000	1567.170
65.000	9025.000	1567.170
64.000	9049.000	1567.170
64.000	9082.000	1567.040
64.000	9120.000	1567.170
64.000	9156.000	1567.170
64.000	9188.000	1567.040
63.000	9230.000	1567.040
64.000	9279.000	1567.170
64.000	9329.000	1567.170
65.000	9388.000	1567.170
79.000	9439.000	1567.170
64.000	9495.000	1567.040
64.000	9551.000	1567.170
64.000	9619.000	1567.170
64.000	9688.000	1567.300
64.000	9753.000	1567.170
65.000	9822.000	1567.170
63.000	9896.000	1567.430
64.000	9974.000	1567.300
63.000	10045.000	1567.430
65.000	10145.000	1567.430
80.000	10262.000	1567.550
64.000	10369.000	1567.550
64.000	10452.000	1567.810
64.000	10542.000	1567.810
64.000	10626.000	1567.930
63.000	10700.000	1567.930
64.000	10772.000	1568.190
64.000	10782.000	1568.320
64.000	10785.000	1568.440
64.000	10789.000	1568.570
64.000	10795.000	1568.830
64.000	10785.000	1568.950
80.000	10786.000	1569.080
64.000	10830.000	1569.340
64.000	10864.000	1569.460
64.000	10892.000	1569.720
64.000	10929.000	1569.720
64.000	11001.000	1569.970
64.000	11128.000	1570.230
64.000	11336.000	1570.480
64.000	11589.000	1570.740
64.000	11853.000	1571.120
63.000	12099.000	1571.120
65.000	12330.000	1571.500
80.000	12591.000	1571.750
64.000	12831.000	1572.010
64.000	13041.000	1572.260
64.000	13300.000	1572.390
64.000	13566.000	1572.770
64.000	13677.000	1573.030
63.000	13863.000	1573.410
65.000	14052.000	1573.670
63.000	14255.000	1573.920
64.000	14491.000	1574.300
64.000	14800.000	1574.680
65.000	15118.000	1575.070
79.000	15378.000	1575.450
65.000	15646.000	1575.960
63.000	15854.000	1576.470
64.000	15942.000	1577.360
64.000	16001.000	1577.610
64.000	15858.000	1576.080
64.000	15709.000	1574.680
64.000	15549.000	1573.790
64.000	15384.000	1573.030
64.000	15221.000	1572.390
64.000	15042.000	1571.880
63.000	14854.000	1571.370
80.000	14683.000	1571.120
65.000	14518.000	1570.610
64.000	14366.000	1570.350
63.000	14213.000	1570.100
64.000	14074.000	1569.840
64.000	13933.000	1569.460
64.000	13793.000	1569.340
65.000	13622.000	1569.080
64.000	13468.000	1568.830
64.000	13307.000	1568.830
64.000	13125.000	1568.570
64.000	12974.000	1568.440
80.000	12833.000	1568.320
63.000	12676.000	1568.190
65.000	12509.000	1568.060
64.000	12377.000	1568.060
63.000	12292.000	1567.930
64.000	12232.000	1567.930
64.000	12189.000	1567.810
64.000	12237.000	1567.680
65.000	12424.000	1567.680
63.000	12492.000	1567.810
64.000	12482.000	1567.680
64.000	12474.000	1567.430
80.000	12413.000	1567.550
64.000	12305.000	1567.550
64.000	12160.000	1567.550
64.000	11977.000	1567.430
63.000	11746.000	1567.300
64.000	11478.000	1567.430
65.000	11267.000	1567.300
63.000	11100.000	1567.300
64.000	10943.000	1567.170
64.000	10827.000	1567.300
64.000	10737.000	1567.300
64.000	10601.000	1567.170
81.000	10470.000	1567.170
63.000	10356.000	1567.170
64.000	10246.000	1567.040
64.000	10157.000	1567.040
64.000	10081.000	1567.170
65.000	10003.000	1567.040
63.000	9945.000	1567.040
64.000	9888.000	1567.040
64.000	9836.000	1567.040
64.000	9784.000	1567.170
64.000	9730.000	1567.170
64.000	9683.000	1567.170
80.000	9641.000	1567.040
64.000	9614.000	1567.040
64.000	9575.000	1567.040
64.000	9535.000	1567.170
64.000	9497.000	1567.170
63.000	9455.000	1567.040
64.000	9421.000	1567.170
64.000	9384.000	1567.300
65.000	9357.000	1567.040
63.000	9327.000	1567.170
64.000	9302.000	1567.170
64.000	9278.000	1567.040
80.000	9252.000	1567.040
64.000	9229.000	1567.040
65.000	9215.000	1567.040
63.000	9181.000	1567.170
64.000	9167.000	1567.040
64.000	9132.000	1567.040
65.000	9119.000	1567.040
63.000	9099.000	1567.170
64.000	9088.000	1567.040
64.000	9069.000	1567.040
63.000	9047.000	1567.040
65.000	9032.000	1567.040
80.000	9015.000	1567.170
64.000	8991.000	1567.170
64.000	8976.000	1567.170
64.000	8963.000	1567.040
63.000	8947.000	1567.040
65.000	8934.000	1567.170
63.000	8921.000	1567.170
65.000	8905.000	1567.040
63.000	8891.000	1567.170
64.000	8880.000	1567.170
65.000	8869.000	1567.170
63.000	8851.000	1567.040
81.000	8843.000	1567.040
64.000	8832.000	1567.170
64.000	8811.000	1567.170
63.000	8804.000	1567.170
64.000	8805.000	1567.170
64.000	8786.000	1567.170
64.000	8778.000	1567.040
64.000	8761.000	1567.040
64.000	8750.000	1567.040
64.000	8745.000	1567.170
64.000	8733.000	1567.170
64.000	8720.000	1567.170
80.000	8715.000	1567.170
63.000	8719.000	1567.170
65.000	8726.000	1567.170
63.000	8729.000	1567.170
64.000	8720.000	1567.040
65.000	8718.000	1567.170
63.000	8716.000	1567.170
64.000	8718.000	1567.170
64.000	8714.000	1567.170
65.000	8719.000	1567.170
63.000	8719.000	1567.040
65.000	8713.000	1567.040
79.000	8723.000	1567.040
64.000	8711.000	1567.040
64.000	8714.000	1567.040
65.000	8706.000	1567.040
64.000	8718.000	1567.040
63.000	8706.000	1567.170
64.000	8711.000	1567.040
64.000	8709.000	1567.040
64.000	8689.000	1567.040
64.000	8431.000	1567.040
64.000	8264.000	1567.170
63.000	8173.000	1567.170
81.000	8107.000	1567.170
64.000	8064.000	1567.170
64.000	8037.000	1567.170
64.000	8015.000	1567.170
63.000	7995.000	1567.170
65.000	7985.000	1567.040
63.000	7970.000	1567.170
64.000	7952.000	1567.040
65.000	7937.000	1567.170
63.000	7927.000	1567.170
64.000	7913.000	1567.040
64.000	7904.000	1567.040
81.000	7897.000	1567.300
63.000	7891.000	1567.170
64.000	7880.000	1567.170
64.000	7879.000	1567.170
64.000	7870.000	1567.170
64.000	7869.000	1567.040
64.000	7865.000	1567.040
64.000	7867.000	1567.170
64.000	7860.000	1567.170
63.000	7856.000	1567.170
65.000	7855.000	1567.170
64.000	7853.000	1567.040
79.000	7847.000	1567.170
65.000	7846.000	1567.040
63.000	7841.000	1567.040
65.000	7838.000	1567.170
64.000	7835.000	1567.170
64.000	7839.000	1567.170
64.000	7827.000	1567.040
64.000	7830.000	1567.170
63.000	7833.000	1567.170
64.000	7824.000	1567.040
65.000	7824.000	1567.040
64.000	7824.000	1567.170
79.000	7822.000	1567.170
64.000	7819.000	1567.040
65.000	7816.000	1567.170
63.000	7822.000	1567.170
64.000	7816.000	1567.170
64.000	7818.000	1567.170
64.000	7815.000	1567.170
64.000	7813.000	1567.170
64.000	7817.000	1567.040
64.000	7811.000	1567.170
64.000	7810.000	1567.040
64.000	7812.000	1567.170
79.000	7814.000	1567.170
65.000	7806.000	1567.040
63.000	7812.000	1567.040
64.000	7812.000	1567.040
65.000	7811.000	1567.170
64.000	7803.000	1567.170
64.000	7811.000	1567.040
64.000	7811.000	1567.040
64.000	7806.000	1567.170
63.000	7807.000	1567.040
65.000	7806.000	1567.040
63.000	7809.000	1567.040
81.000	7808.000	1567.040
63.000	7806.000	1567.170
64.000	7807.000	1567.170
64.000	7805.000	1567.040
64.000	7809.000	1567.170
64.000	7808.000	1567.170
64.000	7809.000	1567.170
64.000	7811.000	1567.170
64.000	7810.000	1567.170
64.000	7809.000	1567.040
63.000	7813.000	1567.040
65.000	7814.000	1567.170
80.000	7811.000	1567.170
63.000	7824.000	1567.170
65.000	7825.000	1567.170
63.000	7832.000	1567.170
64.000	7843.000	1567.170
64.000	7855.000	1567.040
65.000	7865.000	1567.040
64.000	7870.000	1567.170
63.000	7880.000	1567.170
64.000	7895.000	1567.040
64.000	7897.000	1567.170
64.000	7912.000	1567.170
80.000	7924.000	1567.170
64.000	7933.000	1567.040
64.000	7940.000	1567.170
64.000	7954.000	1567.170
64.000	7969.000	1567.040
64.000	7978.000	1567.040
64.000	7990.000	1567.300
63.000	8008.000	1567.170
65.000	8019.000	1567.170
64.000	8033.000	1567.040
63.000	8047.000	1567.170
64.000	8060.000	1567.170
80.000	8077.000	1567.040
64.000	8091.000	1567.170
65.000	8109.000	1567.170
64.000	8125.000	1567.300
64.000	8140.000	1567.040
63.000	8162.000	1567.040
64.000	8177.000	1567.040
64.000	8195.000	1567.170
65.000	8216.000	1567.170
64.000	8234.000	1567.170
64.000	8255.000	1567.170
63.000	8270.000	1567.170
80.000	8301.000	1567.170
64.000	8324.000	1567.040
64.000	8348.000	1567.170
64.000	8374.000	1567.040
64.000	8399.000	1567.170
64.000	8429.000	1567.040
63.000	8450.000	1567.040
64.000	8477.000	1567.170
66.000	8510.000	1567.170
63.000	8540.000	1567.040
64.000	8576.000	1567.040
63.000	8609.000	1567.040
81.000	8648.000	1567.040
64.000	8692.000	1567.170
63.000	8746.000	1567.040
65.000	8792.000	1567.170
63.000	8849.000	1567.040
65.000	8904.000	1567.170
63.000	8944.000	1567.040
64.000	9013.000	1567.040
64.000	9085.000	1567.040
64.000	9146.000	1567.300
65.000	9208.000	1567.300
63.000	9276.000	1567.300
80.000	9339.000	1567.300
64.000	9412.000	1567.430
63.000	9496.000	1567.430
65.000	9593.000	1567.430
64.000	9708.000	1567.680
64.000	9804.000	1567.680
64.000	9890.000	1567.680
63.000	9982.000	1567.810
64.000	10044.000	1567.810
65.000	10113.000	1568.190
64.000	10141.000	1568.190
64.000	10141.000	1568.320
79.000	10134.000	1568.440
64.000	10141.000	1568.570
65.000	10160.000	1568.830
64.000	10173.000	1568.950
63.000	10205.000	1569.210
64.000	10213.000	1569.460
64.000	10235.000	1569.590
64.000	10308.000	1569.720
64.000	10349.000	1569.970
64.000	10455.000	1570.230
64.000	10637.000	1570.350
64.000	10846.000	1570.610
80.000	11088.000	1570.860
63.000	11299.000	1570.990
64.000	11484.000	1571.370
65.000	11672.000	1571.630
64.000	11851.000	1571.750
63.000	12083.000	1572.140
64.000	12294.000	1572.390
64.000	12550.000	1572.650
64.000	12706.000	1572.900
65.000	12840.000	1573.280
64.000	12980.000	1573.540
63.000	13138.000	1573.790
81.000	13467.000	1574.170
63.000	13737.000	1574.560
64.000	14123.000	1574.940
65.000	14413.000	1575.190
63.000	14674.000	1575.700
64.000	14945.000	1576.210
63.000	15305.000	1576.850
65.000	15259.000	1577.610
64.000	15187.000	1576.590
63.000	15004.000	1575.070
65.000	14854.000	1573.920
63.000	14690.000	1573.280
80.000	14529.000	1572.650
64.000	14354.000	1572.010
65.000	14172.000	1571.630
63.000	14035.000	1571.250
65.000	13886.000	1570.740
63.000	13743.000	1570.480
64.000	13588.000	1570.100
65.000	13424.000	1569.840
64.000	13261.000	1569.590
63.000	13106.000	1569.460
64.000	12946.000	1569.210
65.000	12735.000	1568.950
79.000	12549.000	1568.700
64.000	12355.000	1568.570
64.000	12136.000	1568.570
64.000	11978.000	1568.320
65.000	11849.000	1568.320
63.000	11671.000	1568.060
64.000	11542.000	1568.060
64.000	11424.000	1567.930
64.000	11365.000	1567.930
65.000	11384.000	1567.930
62.000	11474.000	1567.810
65.000	11584.000	1567.680
80.000	11637.000	1567.680
64.000	11605.000	1567.550
64.000	11606.000	1567.680
64.000	11515.000	1567.550
64.000	11411.000	1567.550
64.000	11220.000	1567.550
64.000	11058.000	1567.430
64.000	10824.000	1567.430
63.000	10593.000	1567.300
64.000	10355.000	1567.300
64.000	10174.000	1567.300
64.000	10025.000	1567.300
80.000	9959.000	1567.300
64.000	9853.000	1567.300
64.000	9758.000	1567.170
64.000	9744.000	1567.170
64.000	9679.000	1567.170
64.000	9595.000	1567.170
64.000	9507.000	1567.170
64.000	9435.000	1567.170
64.000	9378.000	1567.170
63.000	9323.000	1567.170
65.000	9275.000	1567.040
63.000	9236.000	1567.040
80.000	9187.000	1567.040
64.000	9144.000	1567.040
64.000	9104.000	1567.040
65.000	9061.000	1567.040
63.000	9034.000	1567.170
64.000	9001.000	1567.170
64.000	8975.000	1567.170
65.000	8952.000	1567.170
63.000	8917.000	1567.170
66.000	8900.000	1567.170
62.000	8873.000	1567.170
64.000	8850.000	1567.040
80.000	8821.000	1567.040
64.000	8798.000	1567.040
64.000	8772.000	1567.170
64.000	8748.000	1567.170
64.000	8725.000	1567.170
64.000	8710.000	1567.170
64.000	8691.000	1567.170
63.000	8675.000	1567.170
65.000	8659.000	1567.170
64.000	8633.000	1567.040
64.000	8609.000	1567.040
63.000	8603.000	1567.170
81.000	8585.000	1567.170
64.000	8574.000	1567.170
64.000	8553.000	1567.170
64.000	8537.000	1567.170
64.000	8525.000	1567.170
63.000	8506.000	1567.040
64.000	8496.000	1567.040
64.000	8481.000	1567.170
64.000	8472.000	1567.170
64.000	8449.000	1567.170
64.000	8448.000	1567.170
64.000	8434.000	1567.040
80.000	8423.000	1567.170
64.000	8409.000	1567.040
65.000	8397.000	1567.170
64.000	8388.000	1567.040
63.000	8376.000	1567.040
64.000	8366.000	1567.040
64.000	8357.000	1567.040
65.000	8346.000	1567.040
63.000	8338.000	1567.040
64.000	8330.000	1567.170
64.000	8322.000	1567.170
63.000	8313.000	1567.170
81.000	8305.000	1567.170
63.000	8301.000	1567.040
64.000	8292.000	1567.170
65.000	8281.000	1567.040
63.000	8277.000	1567.170
65.000	8280.000	1567.040
64.000	8280.000	1567.040
64.000	8278.000	1567.040
64.000	8283.000	1567.170
63.000	8281.000	1567.170
64.000	8278.000	1567.170
65.000	8279.000	1567.170
79.000	8282.000	1567.170
64.000	8282.000	1567.170
64.000	8282.000	1567.170
64.000	8283.000	1567.170
64.000	8281.000	1567.170
64.000	8284.000	1567.170
64.000	8285.000	1567.170
64.000	8283.000	1567.040
64.000	8282.000	1567.040
64.000	8286.000	1567.170
64.000	8287.000	1567.040
63.000	8282.000	1567.040
81.000	8280.000	1567.040
63.000	8281.000	1567.170
64.000	8283.000	1567.040
65.000	8283.000	1567.170
63.000	8283.000	1567.170
64.000	8282.000	1567.040
65.000	8280.000	1567.170
64.000	8282.000	1567.170
63.000	8284.000	1567.170
65.000	8283.000	1567.040
64.000	8289.000	1567.170
64.000	8282.000	1567.040
79.000	8285.000	1567.170
64.000	8281.000	1567.040
64.000	8291.000	1567.170
64.000	8286.000	1567.170
64.000	8284.000	1567.170
64.000	8288.000	1567.040
63.000	8285.000	1567.170
65.000	8283.000	1567.040
64.000	8286.000	1567.040
64.000	8287.000	1567.040
63.000	8290.000	1567.040
65.000	8283.000	1567.040
79.000	8280.000	1567.040
65.000	8284.000	1567.170
63.000	8287.000	1567.170
64.000	8290.000	1567.040
65.000	8288.000	1567.040
64.000	8287.000	1567.040
64.000	8291.000	1567.040
63.000	8285.000	1567.170
64.000	8286.000	1567.040
64.000	8286.000	1567.170
64.000	8289.000	1567.040
64.000	8285.000	1566.920
80.000	8288.000	1567.170
63.000	8288.000	1567.040
65.000	8290.000	1567.170
64.000	8295.000	1567.170
64.000	8283.000	1567.170
63.000	8291.000	1567.040
65.000	8289.000	1567.170
64.000	8289.000	1567.170
64.000	8290.000	1567.040
64.000	8292.000	1567.170
64.000	8283.000	1567.170
64.000	8290.000	1567.040
80.000	8293.000	1566.920
63.000	8292.000	1567.170
64.000	8289.000	1567.040
64.000	8290.000	1567.170
64.000	8290.000	1567.040
64.000	8295.000	1567.170
65.000	8295.000	1567.170
63.000	8293.000	1567.040
64.000	8292.000	1567.040
64.000	8292.000	1567.170
64.000	8294.000	1567.040
64.000	8296.000	1567.170
80.000	8293.000	1567.170
64.000	8291.000	1567.170
64.000	8291.000	1567.040
64.000	8291.000	1567.040
64.000	8291.000	1567.170
64.000	8291.000	1567.040
64.000	8288.000	1567.170
64.000	8295.000	1567.040
63.000	8290.000	1567.300
65.000	8289.000	1567.040
64.000	8293.000	1567.170
64.000	8288.000	1567.040
80.000	8287.000	1567.170
64.000	8283.000	1567.170
63.000	8296.000	1567.040
64.000	8293.000	1567.170
64.000	8296.000	1567.170
64.000	8301.000	1567.170
65.000	8314.000	1567.040
63.000	8322.000	1567.170
65.000	8328.000	1567.170
63.000	8334.000	1567.170
64.000	8350.000	1567.300
64.000	8357.000	1567.040
80.000	8365.000	1567.170
64.000	8375.000	1567.040
64.000	8392.000	1567.040
64.000	8400.000	1567.170
64.000	8405.000	1567.170
64.000	8416.000	1567.040
65.000	8427.000	1567.170
63.000	8444.000	1567.170
64.000	8452.000	1567.040
64.000	8464.000	1567.040
64.000	8473.000	1567.170
63.000	8491.000	1567.170
80.000	8501.000	1567.040
64.000	8513.000	1567.040
65.000	8530.000	1567.170
64.000	8548.000	1567.170
64.000	8561.000	1567.040
63.000	8576.000	1567.040
64.000	8595.000	1567.040
64.000	8616.000	1567.040
64.000	8633.000	1567.040
65.000	8649.000	1566.920
63.000	8670.000	1567.040
64.000	8693.000	1567.040
81.000	8711.000	1567.040
64.000	8740.000	1567.170
63.000	8745.000	1567.170
65.000	8770.000	1567.040
63.000	8802.000	1567.040
63.000	8818.000	1567.170
65.000	8850.000	1567.040
64.000	8885.000	1567.170
64.000	8906.000	1567.040
64.000	8931.000	1567.170
64.000	8961.000	1567.040
64.000	8989.000	1567.170
79.000	9023.000	1567.170
64.000	9059.000	1567.040
64.000	9099.000	1567.170
65.000	9135.000	1567.040
64.000	9175.000	1567.040
63.000	9221.000	1566.920
65.000	9272.000	1567.170
63.000	9332.000	1567.040
64.000	9382.000	1567.170
64.000	9439.000	1567.040
64.000	9501.000	1567.170
64.000	9566.000	1567.170
81.000	9636.000	1567.170
63.000	9698.000	1567.300
64.000	9763.000	1567.300
64.000	9842.000	1567.300
65.000	9920.000	1567.300
63.000	10012.000	1567.300
64.000	10114.000	1567.430
64.000	10237.000	1567.430
64.000	10322.000	1567.550
63.000	10418.000	1567.680
65.000	10516.000	1567.810
63.000	10588.000	1568.060
81.000	10664.000	1567.930
63.000	10712.000	1568.320
64.000	10719.000	1568.320
64.000	10720.000	1568.440
65.000	10729.000	1568.570
64.000	10731.000	1568.830
64.000	10727.000	1568.830
63.000	10728.000	1569.210
64.000	10764.000	1569.210
64.000	10816.000	1569.460
65.000	10849.000	1569.720
64.000	10906.000	1569.970
80.000	11003.000	1570.100
63.000	11148.000	1570.350
64.000	11374.000	1570.480
64.000	11629.000	1570.860
64.000	11887.000	1570.990
64.000	12137.000	1571.120
64.000	12405.000	1571.500
63.000	12640.000	1571.630
64.000	12874.000	1572.010
64.000	13121.000	1572.260
65.000	13415.000	1572.520
63.000	13606.000	1572.900
81.000	13674.000	1573.160
63.000	13851.000	1573.410
64.000	14003.000	1573.670
64.000	14243.000	1574.050
65.000	14533.000	1574.430
63.000	14789.000	1574.680
64.000	15121.000	1575.190
64.000	15415.000	1575.450
64.000	15673.000	1576.080
64.000	15841.000	1576.590
64.000	15927.000	1577.610
64.000	15888.000	1577.100
80.000	15728.000	1575.450
64.000	15566.000	1574.430
65.000	15404.000	1573.410
63.000	15246.000	1572.770
64.000	15080.000	1572.260
63.000	14904.000	1571.750
65.000	14714.000	1571.370
64.000	14550.000	1570.860
64.000	14406.000	1570.610
63.000	14256.000	1570.100
64.000	14101.000	1569.970
81.000	13957.000	1569.720
63.000	13811.000	1569.340
65.000	13680.000	1569.210
63.000	13547.000	1568.950
64.000	13341.000	1568.830
64.000	13158.000	1568.570
64.000	12975.000	1568.570
64.000	12813.000	1568.440
65.000	12668.000	1568.320
63.000	12523.000	1568.190
64.000	12362.000	1568.190
64.000	12229.000	1568.060
80.000	12137.000	1567.930
64.000	12066.000	1567.810
64.000	12045.000	1567.810
64.000	12234.000	1567.810
63.000	12305.000	1567.810
64.000	12359.000	1567.550
64.000	12337.000	1567.680
65.000	12287.000	1567.550
64.000	12226.000	1567.550
63.000	12078.000	1567.550
64.000	11909.000	1567.550
64.000	11699.000	1567.430
80.000	11430.000	1567.300
64.000	11144.000	1567.300
64.000	10952.000	1567.300
64.000	10784.000	1567.300
65.000	10631.000	1567.300
63.000	10579.000	1567.300
64.000	10521.000	1567.170
64.000	10422.000	1567.170
64.000	10306.000	1567.300
64.000	10190.000	1567.170
64.000	10101.000	1567.040
64.000	10001.000	1567.170
80.000	9928.000	1567.170
65.000	9864.000	1567.170
62.000	9802.000	1567.170
65.000	9756.000	1567.040
63.000	9702.000	1567.170
64.000	9646.000	1567.040
64.000	9584.000	1567.170
64.000	9554.000	1567.040
64.000	9518.000	1567.040
65.000	9476.000	1567.040
64.000	9450.000	1567.040
64.000	9416.000	1567.170
80.000	9387.000	1567.170
63.000	9356.000	1567.170
64.000	9325.000	1567.040
65.000	9299.000	1567.040
63.000	9269.000	1567.170
64.000	9246.000	1567.170
65.000	9220.000	1567.170
63.000	9192.000	1567.040
64.000	9166.000	1567.170
64.000	9148.000	1567.040
64.000	9125.000	1567.040
64.000	9107.000	1567.040
80.000	9083.000	1567.170
64.000	9065.000	1567.170
64.000	9044.000	1567.040
64.000	9026.000	1567.040
63.000	9000.000	1567.170
65.000	8985.000	1567.040
64.000	8976.000	1567.040
64.000	8952.000	1567.040
63.000	8952.000	1567.300
64.000	8927.000	1567.170
64.000	8911.000	1567.040
64.000	8900.000	1567.170
80.000	8881.000	1567.170
64.000	8863.000	1567.040
64.000	8857.000	1567.170
64.000	8835.000	1567.170
64.000	8826.000	1567.040
65.000	8808.000	1567.040
63.000	8800.000	1567.170
64.000	8783.000	1567.040
64.000	8773.000	1567.170
64.000	8768.000	1567.170
63.000	8758.000	1567.170
65.000	8748.000	1567.170
80.000	8735.000	1567.040
64.000	8728.000	1567.170
64.000	8710.000	1567.170
63.000	8710.000	1567.040
65.000	8693.000	1567.040
63.000	8693.000	1567.040
65.000	8672.000	1567.170
63.000	8672.000	1567.040
64.000	8656.000	1567.170
64.000	8661.000	1567.170
65.000	8664.000	1567.170
63.000	8662.000	1567.170
80.000	8665.000	1567.040
64.000	8654.000	1567.040
66.000	8661.000	1567.040
62.000	8663.000	1567.040
64.000	8654.000	1567.170
64.000	8643.000	1567.040
64.000	8652.000	1567.040
64.000	8653.000	1567.170
64.000	8650.000	1567.170
64.000	8652.000	1567.040
64.000	8649.000	1567.170
64.000	8655.000	1567.170
79.000	8657.000	1567.040
65.000	8646.000	1567.040
64.000	8646.000	1567.170
63.000	8650.000	1567.040
64.000	8651.000	1567.040
65.000	8649.000	1567.040
65.000	8644.000	1567.040
63.000	8644.000	1567.170
63.000	8643.000	1567.170
64.000	8638.000	1567.170
65.000	8644.000	1567.170
63.000	8636.000	1566.920
80.000	8637.000	1567.040
64.000	8637.000	1567.170
64.000	8631.000	1567.170
65.000	8634.000	1567.040
63.000	8637.000	1567.040
64.000	8633.000	1567.040
64.000	8628.000	1567.170
64.000	8637.000	1567.170
64.000	8630.000	1567.040
64.000	8633.000	1567.170
64.000	8634.000	1567.040
64.000	8632.000	1567.170
80.000	8634.000	1566.920
64.000	8633.000	1567.040
63.000	8629.000	1567.040
65.000	8627.000	1567.170
64.000	8627.000	1567.170
64.000	8627.000	1566.920
63.000	8634.000	1567.170
65.000	8636.000	1567.040
63.000	8640.000	1567.170
65.000	8632.000	1566.920
64.000	8625.000	1567.040
63.000	8633.000	1567.170
81.000	8625.000	1567.040
64.000	8627.000	1567.170
63.000	8629.000	1567.040
64.000	8630.000	1567.040
64.000	8631.000	1567.040
65.000	8624.000	1567.040
63.000	8623.000	1567.170
64.000	8628.000	1567.040
65.000	8626.000	1567.170
63.000	8632.000	1567.170
64.000	8620.000	1567.170
64.000	8633.000	1567.040
80.000	8621.000	1567.040
64.000	8618.000	1567.170
64.000	8625.000	1567.170
63.000	8626.000	1567.040
65.000	8630.000	1567.040
63.000	8625.000	1567.040
64.000	8628.000	1567.040
64.000	8626.000	1567.170
65.000	8621.000	1567.040
63.000	8625.000	1567.040
64.000	8617.000	1567.040
65.000	8627.000	1567.040
79.000	8629.000	1567.170
64.000	8626.000	1567.040
64.000	8615.000	1567.040
64.000	8618.000	1567.170
64.000	8625.000	1567.170
65.000	8631.000	1567.040
63.000	8622.000	1567.040
64.000	8618.000	1567.040
64.000	8620.000	1567.170
64.000	8616.000	1567.040
64.000	8618.000	1567.040
64.000	8622.000	1567.170
80.000	8615.000	1567.170
64.000	8613.000	1567.040
63.000	8617.000	1566.920
65.000	8622.000	1567.170
63.000	8614.000	1567.040
64.000	8613.000	1567.040
65.000	8612.000	1567.040
63.000	8614.000	1567.170
65.000	8617.000	1567.170
63.000	8627.000	1567.040
64.000	8642.000	1567.170
65.000	8650.000	1567.040
79.000	8655.000	1567.040
64.000	8667.000	1567.170
64.000	8671.000	1567.040
65.000	8682.000	1567.040
63.000	8701.000	1567.040
64.000	8709.000	1567.040
64.000	8716.000	1567.040
64.000	8722.000	1567.040
64.000	8733.000	1567.040
64.000	8754.000	1567.170
64.000	8758.000	1567.040
64.000	8770.000	1567.040
80.000	8786.000	1567.170
63.000	8791.000	1567.040
65.000	8810.000	1567.170
63.000	8824.000	1567.040
65.000	8834.000	1567.040
64.000	8856.000	1567.040
64.000	8863.000	1567.170
63.000	8885.000	1567.040
64.000	8891.000	1567.040
65.000	8907.000	1566.920
63.000	8934.000	1567.040
64.000	8947.000	1567.040
81.000	8963.000	1567.040
63.000	8983.000	1567.170
64.000	8995.000	1567.170
65.000	9014.000	1567.040
63.000	9042.000	1567.040
64.000	9058.000	1567.040
64.000	9082.000	1567.040
64.000	9107.000	1567.040
64.000	9131.000	1567.040
64.000	9157.000	1567.170
63.000	9172.000	1567.040
65.000	9205.000	1567.040
79.000	9236.000	1567.040
64.000	9262.000	1567.040
64.000	9293.000	1567.040
64.000	9326.000	1567.170
65.000	9355.000	1567.170
64.000	9388.000	1567.170
63.000	9426.000	1567.170
64.000	9464.000	1567.170
65.000	9505.000	1567.040
63.000	9562.000	1567.040
64.000	9607.000	1567.170
65.000	9664.000	1567.040
80.000	9713.000	1567.170
63.000	9769.000	1567.040
64.000	9831.000	1567.040
64.000	9913.000	1567.170
64.000	9983.000	1567.170
64.000	10046.000	1567.170
64.000	10111.000	1567.170
64.000	10182.000	1567.170
64.000	10266.000	1567.300
63.000	10347.000	1567.430
65.000	10443.000	1567.430
64.000	10565.000	1567.550
79.000	10682.000	1567.550
64.000	10781.000	1567.680
64.000	10887.000	1567.680
64.000	10976.000	1567.930
64.000	11059.000	1567.930
65.000	11128.000	1568.060
63.000	11151.000	1568.320
64.000	11145.000	1568.320
64.000	11142.000	1568.440
64.000	11145.000	1568.700
64.000	11135.000	1568.830
64.000	11133.000	1568.950
80.000	11136.000	1569.210
64.000	11152.000	1569.460
65.000	11187.000	1569.590
63.000	11221.000	1569.840
64.000	11292.000	1569.970
64.000	11416.000	1570.230
64.000	11600.000	1570.480
64.000	11849.000	1570.740
64.000	12130.000	1570.740
64.000	12415.000	1571.120
64.000	12638.000	1571.370
64.000	12894.000	1571.630
79.000	13163.000	1571.880
65.000	13429.000	1572.140
64.000	13633.000	1572.520
64.000	13885.000	1572.770
64.000	14073.000	1573.030
64.000	14251.000	1573.410
63.000	14374.000	1573.540
64.000	14600.000	1573.920
64.000	14792.000	1574.300
64.000	15016.000	1574.680
64.000	15359.000	1574.940
65.000	15558.000	1575.450
79.000	15842.000	1575.960
64.000	15982.000	1576.470
64.000	16055.000	1577.230
63.000	16040.000	1577.360
65.000	15891.000	1575.700
64.000	15745.000	1574.560
64.000	15577.000	1573.670
64.000	15407.000	1572.900
64.000	15229.000	1572.390
64.000	15052.000	1571.750
63.000	14887.000	1571.370
64.000	14738.000	1570.860
81.000	14586.000	1570.740
64.000	14442.000	1570.350
63.000	14313.000	1569.970
64.000	14161.000	1569.720
64.000	14039.000	1569.460
65.000	13932.000	1569.340
63.000	13827.000	1568.950
64.000	13689.000	1568.950
64.000	13544.000	1568.570
64.000	13403.000	1568.570
64.000	13256.000	1568.440
65.000	13118.000	1568.320
79.000	12984.000	1568.190
64.000	12876.000	1568.190
64.000	12737.000	1568.060
63.000	12692.000	1567.810
65.000	12608.000	1567.810
63.000	12548.000	1567.810
65.000	12562.000	1567.810
63.000	12576.000	1567.680
64.000	12703.000	1567.680
65.000	12792.000	1567.550
64.000	12934.000	1567.550
63.000	12976.000	1567.550
81.000	12887.000	1567.430
63.000	12785.000	1567.430
64.000	12612.000	1567.430
64.000	12370.000	1567.300
65.000	12109.000	1567.300
64.000	11870.000	1567.300
63.000	11656.000	1567.300
64.000	11464.000	1567.170
65.000	11293.000	1567.300
63.000	11131.000	1567.170
64.000	10985.000	1567.170
64.000	10843.000	1567.170
80.000	10729.000	1567.170
64.000	10609.000	1567.170
64.000	10518.000	1567.170
64.000	10428.000	1567.040
64.000	10346.000	1567.170
64.000	10291.000	1567.040
64.000	10216.000	1567.170
64.000	10167.000	1567.170
63.000	10112.000	1567.040
65.000	10060.000	1567.040
64.000	10018.000	1567.170
63.000	9984.000	1566.920
80.000	9956.000	1567.170
65.000	9913.000	1567.170
63.000	9874.000	1567.170
65.000	9847.000	1567.040
63.000	9805.000	1567.040
64.000	9773.000	1567.170
64.000	9739.000	1567.170
64.000	9715.000	1567.170
64.000	9690.000	1567.040
64.000	9662.000	1567.170
64.000	9637.000	1567.170
64.000	9608.000	1567.170
80.000	9584.000	1567.040
64.000	9563.000	1567.170
64.000	9532.000	1567.170
64.000	9514.000	1567.040
64.000	9490.000	1567.040
64.000	9477.000	1567.170
64.000	9448.000	1567.170
64.000	9423.000	1567.040
64.000	9415.000	1567.170
63.000	9388.000	1567.040
65.000	9380.000	1567.040
64.000	9362.000	1567.170
80.000	9346.000	1567.040
63.000	9325.000	1567.040
65.000	9313.000	1567.170
63.000	9302.000	1567.040
64.000	9288.000	1566.920
65.000	9276.000	1567.040
64.000	9262.000	1567.040
63.000	9253.000	1567.040
64.000	9229.000	1567.170
64.000	9223.000	1567.170
64.000	9209.000	1567.040
64.000	9187.000	1567.040
80.000	9182.000	1567.040
64.000	9165.000	1567.040
64.000	9155.000	1567.170
64.000	9150.000	1567.170
64.000	9135.000	1567.170
64.000	9125.000	1567.170
64.000	9117.000	1567.040
64.000	9094.000	1567.040
64.000	9100.000	1567.040
63.000	9088.000	1567.040
64.000	9075.000	1567.170
65.000	9059.000	1567.170
79.000	9065.000	1567.040
64.000	9069.000	1567.040
64.000	9071.000	1567.040
64.000	9067.000	1567.040
64.000	9067.000	1567.040
64.000	9057.000	1567.040
64.000	9059.000	1567.040
64.000	9055.000	1567.040
64.000	9056.000	1567.170
64.000	9058.000	1567.040
64.000	9051.000	1567.040
64.000	9057.000	1567.040
80.000	9050.000	1567.040
64.000	9047.000	1567.040
64.000	9047.000	1567.040
64.000	9044.000	1567.040
64.000	9045.000	1567.040
64.000	9047.000	1567.040
64.000	9036.000	1567.040
64.000	9041.000	1567.040
64.000	9030.000	1567.040
64.000	9032.000	1567.170
64.000	9024.000	1566.920
63.000	9025.000	1567.040
81.000	9036.000	1567.040
63.000	9026.000	1567.170
64.000	9022.000	1567.040
65.000	9031.000	1567.170
63.000	9020.000	1567.040
65.000	9016.000	1567.040
63.000	9017.000	1567.170
65.000	9016.000	1567.170
63.000	9005.000	1567.040
64.000	9007.000	1567.040
64.000	9007.000	1567.040
64.000	9007.000	1567.170
80.000	9004.000	1567.170
64.000	9008.000	1567.040
64.000	9000.000	1567.040
65.000	8999.000	1567.040
63.000	8996.000	1567.040
64.000	8984.000	1567.170
64.000	8995.000	1567.170
63.000	8986.000	1567.040
65.000	8984.000	1566.920
64.000	8980.000	1567.170
64.000	8982.000	1567.170
63.000	8967.000	1567.170
81.000	8975.000	1567.040
64.000	8964.000	1566.920
63.000	8968.000	1567.040
65.000	8959.000	1567.040
64.000	8959.000	1567.040
64.000	8969.000	1567.040
63.000	8958.000	1567.040
64.000	8956.000	1567.040
65.000	8948.000	1567.170
63.000	8955.000	1567.170
65.000	8951.000	1567.040
63.000	8948.000	1567.040
80.000	8950.000	1567.170
63.000	8940.000	1567.040
65.000	8939.000	1567.170
64.000	8937.000	1567.040
63.000	8931.000	1567.040
65.000	8935.000	1567.040
64.000	8930.000	1567.040
64.000	8939.000	1567.040
64.000	8931.000	1567.040
64.000	8926.000	1567.040
65.000	8934.000	1567.040
62.000	8935.000	1567.040
80.000	8923.000	1567.040
65.000	8932.000	1567.040
63.000	8929.000	1567.170
64.000	8927.000	1567.040
64.000	8926.000	1567.040
64.000	8924.000	1567.170
64.000	8926.000	1567.040
64.000	8924.000	1567.040
64.000	8929.000	1567.040
64.000	8926.000	1567.040
64.000	8920.000	1567.040
64.000	8918.000	1567.040
80.000	8918.000	1567.040
64.000	8925.000	1567.040
64.000	8919.000	1567.040
63.000	8922.000	1567.170
65.000	8923.000	1567.040
64.000	8922.000	1567.040
63.000	8917.000	1567.040
64.000	8915.000	1566.920
65.000	8921.000	1567.040
64.000	8915.000	1567.040
64.000	8912.000	1567.170
63.000	8918.000	1566.920
81.000	8930.000	1567.040
63.000	8924.000	1567.040
64.000	8946.000	1567.170
64.000	8943.000	1567.170
64.000	8955.000	1567.040
64.000	8965.000	1567.040
64.000	8973.000	1567.040
64.000	8982.000	1567.040
63.000	9002.000	1566.920
65.000	8989.000	1566.920
64.000	9012.000	1567.040
64.000	9023.000	1567.040
80.000	9027.000	1567.040
64.000	9052.000	1567.040
63.000	9055.000	1567.040
65.000	9064.000	1567.170
64.000	9086.000	1567.040
63.000	9103.000	1567.170
64.000	9115.000	1567.170
65.000	9119.000	1567.040
64.000	9137.000	1567.040
63.000	9157.000	1567.040
64.000	9166.000	1567.040
65.000	9184.000	1567.170
79.000	9207.000	1567.040
64.000	9212.000	1567.170
65.000	9232.000	1567.040
63.000	9250.000	1567.040
64.000	9260.000	1567.170
64.000	9274.000	1566.920
64.000	9301.000	1567.040
64.000	9331.000	1567.040
64.000	9347.000	1567.170
64.000	9369.000	1567.040
64.000	9383.000	1566.920
64.000	9411.000	1567.040
80.000	9433.000	1567.040
64.000	9464.000	1567.040
64.000	9485.000	1567.040
63.000	9519.000	1567.040
65.000	9552.000	1567.040
64.000	9584.000	1567.040
63.000	9621.000	1567.040
64.000	9644.000	1567.040
65.000	9678.000	1567.170
63.000	9710.000	1567.040
64.000	9759.000	1567.040
65.000	9801.000	1567.170
79.000	9836.000	1567.040
65.000	9903.000	1567.040
63.000	9958.000	1567.040
64.000	10009.000	1567.040
64.000	10070.000	1567.040
64.000	10123.000	1567.040
64.000	10196.000	1567.040
64.000	10272.000	1567.040
64.000	10339.000	1567.170
64.000	10410.000	1567.300
64.000	10476.000	1567.170
64.000	10553.000	1567.300
80.000	10634.000	1567.300
64.000	10730.000	1567.430
64.000	10851.000	1567.550
64.000	10987.000	1567.550
64.000	11089.000	1567.680
64.000	11192.000	1567.810
63.000	11291.000	1567.680
64.000	11372.000	1567.810
64.000	11447.000	1567.930
64.000	11477.000	1568.190
65.000	11475.000	1568.320
63.000	11470.000	1568.440
80.000	11504.000	1568.570
64.000	11491.000	1568.830
64.000	11480.000	1568.950
65.000	11468.000	1569.210
63.000	11471.000	1569.340
64.000	11474.000	1569.590
64.000	11508.000	1569.840
64.000	11564.000	1569.970
64.000	11666.000	1570.100
64.000	11845.000	1570.350
64.000	12076.000	1570.610
64.000	12330.000	1570.860
80.000	12596.000	1571.120
63.000	12834.000	1571.250
64.000	13077.000	1571.630
64.000	13311.000	1571.880
65.000	13585.000	1572.140
64.000	13742.000	1572.390
63.000	13983.000	1572.650
64.000	14227.000	1572.900
65.000	14383.000	1573.280
63.000	14568.000	1573.670
64.000	14742.000	1573.920
64.000	14911.000	1574.170
80.000	15129.000	1574.430
64.000	15402.000	1574.940
64.000	15605.000	1575.190
64.000	15874.000	1575.700
64.000	16013.000	1576.340
64.000	16184.000	1576.980
64.000	16138.000	1577.610
64.000	16003.000	1576.210
64.000	15856.000	1574.940
64.000	15701.000	1573.790
64.000	15543.000	1573.160
63.000	15352.000	1572.520
80.000	15180.000	1572.010
65.000	15005.000	1571.500
63.000	14840.000	1571.120
64.000	14690.000	1570.740
64.000	14551.000	1570.480
64.000	14422.000	1570.100
64.000	14293.000	1569.840
65.000	14177.000	1569.590
63.000	14075.000	1569.340
64.000	13992.000	1569.080
64.000	13892.000	1568.830
65.000	13787.000	1568.700
79.000	13684.000	1568.570
64.000	13580.000	1568.440
64.000	13458.000	1568.320
64.000	13337.000	1568.190
64.000	13202.000	1568.190
64.000	13088.000	1568.190
64.000	12998.000	1567.930
64.000	12949.000	1567.810
64.000	12915.000	1567.810
64.000	12953.000	1567.810
63.000	12992.000	1567.680
80.000	13021.000	1567.680
64.000	13039.000	1567.550
65.000	13013.000	1567.550
63.000	12958.000	1567.550
65.000	12860.000	1567.550
63.000	12737.000	1567.430
65.000	12578.000	1567.430
63.000	12753.000	1567.300
64.000	12564.000	1567.300
64.000	12352.000	1567.300
64.000	12161.000	1567.300
65.000	11973.000	1567.300
79.000	11797.000	1567.170
64.000	11656.000	1567.170
64.000	11496.000	1567.170
64.000	11355.000	1567.170
64.000	11220.000	1567.170
64.000	11088.000	1567.040
63.000	10974.000	1567.170
64.000	10868.000	1567.170
65.000	10774.000	1567.040
64.000	10700.000	1567.040
64.000	10636.000	1567.170
64.000	10574.000	1567.040
79.000	10513.000	1567.040
64.000	10457.000	1567.040
64.000	10402.000	1566.920
65.000	10357.000	1567.040
64.000	10310.000	1567.170
64.000	10276.000	1567.170
63.000	10246.000	1567.170
64.000	10201.000	1567.170
64.000	10169.000	1567.170
64.000	10139.000	1567.170
64.000	10109.000	1567.040
64.000	10077.000	1567.040
81.000	10044.000	1567.040
63.000	10012.000	1567.040
64.000	9989.000	1567.170
64.000	9958.000	1567.040
64.000	9931.000	1567.170
63.000	9910.000	1567.170
66.000	9885.000	1567.170
63.000	9845.000	1567.170
63.000	9829.000	1567.170
65.000	9801.000	1567.170
63.000	9779.000	1567.170
64.000	9759.000	1567.040
81.000	9742.000	1567.170
63.000	9717.000	1567.170
65.000	9708.000	1567.040
63.000	9689.000	1567.040
64.000	9666.000	1566.920
64.000	9652.000	1567.170
65.000	9635.000	1567.170
63.000	9616.000	1567.170
65.000	9591.000	1567.040
63.000	9584.000	1567.170
64.000	9571.000	1567.040
64.000	9556.000	1567.040
80.000	9540.000	1567.040
64.000	9526.000	1567.040
64.000	9514.000	1566.920
64.000	9503.000	1567.040
64.000	9482.000	1567.040
64.000	9474.000	1567.040
64.000	9464.000	1567.040
63.000	9456.000	1567.040
64.000	9435.000	1567.040
64.000	9428.000	1567.170
64.000	9407.000	1567.040
64.000	9403.000	1567.040
81.000	9390.000	1567.170
64.000	9381.000	1567.040
64.000	9376.000	1567.040
63.000	9365.000	1567.040
64.000	9360.000	1567.040
65.000	9363.000	1567.170
64.000	9369.000	1567.170
64.000	9357.000	1567.040
63.000	9362.000	1567.170
65.000	9356.000	1567.040
63.000	9345.000	1567.040
64.000	9351.000	1567.040
80.000	9350.000	1567.170
64.000	9349.000	1567.040
64.000	9353.000	1567.170
64.000	9349.000	1567.040
64.000	9340.000	1567.170
64.000	9342.000	1567.040
64.000	9340.000	1567.170
63.000	9339.000	1567.040
64.000	9332.000	1567.040
65.000	9338.000	1566.920
63.000	9338.000	1567.040
64.000	9338.000	1567.040
80.000	9338.000	1567.170
64.000	9333.000	1567.170
64.000	9332.000	1567.170
64.000	9322.000	1567.040
64.000	9329.000	1567.040
64.000	9334.000	1567.170
64.000	9328.000	1567.040
64.000	9317.000	1567.040
65.000	9322.000	1567.170
63.000	9329.000	1567.170
64.000	9323.000	1567.040
64.000	9318.000	1567.040
80.000	9318.000	1567.040
64.000	9319.000	1567.040
64.000	9314.000	1567.040
65.000	9314.000	1567.040
63.000	9311.000	1567.040
63.000	9304.000	1567.040
64.000	9314.000	1567.040
64.000	9313.000	1567.040
64.000	9316.000	1567.040
64.000	9305.000	1567.040
64.000	9305.000	1567.040
64.000	9310.000	1566.920
80.000	9310.000	1567.040
64.000	9300.000	1567.170
64.000	9306.000	1567.040
64.000	9302.000	1567.170
64.000	9303.000	1567.040
64.000	9300.000	1567.040
64.000	9302.000	1567.170
64.000	9305.000	1567.040
64.000	9302.000	1567.170
64.000	9295.000	1567.040
64.000	9304.000	1567.170
64.000	9297.000	1567.040
79.000	9295.000	1567.040
65.000	9289.000	1567.040
64.000	9293.000	1567.040
63.000	9290.000	1567.170
64.000	9288.000	1567.040
65.000	9286.000	1567.170
63.000	9286.000	1567.040
65.000	9286.000	1567.170
63.000	9283.000	1567.040
65.000	9285.000	1567.040
64.000	9282.000	1567.040
63.000	9285.000	1567.040
80.000	9282.000	1567.040
65.000	9283.000	1567.170
63.000	9276.000	1567.040
64.000	9268.000	1567.040
64.000	9275.000	1567.040
64.000	9271.000	1567.040
64.000	9271.000	1567.040
64.000	9269.000	1567.170
64.000	9276.000	1567.040
65.000	9274.000	1567.170
63.000	9267.000	1567.170
64.000	9269.000	1566.920
80.000	9278.000	1567.170
64.000	9260.000	1567.040
64.000	9261.000	1566.920
63.000	9269.000	1567.170
65.000	9261.000	1567.040
64.000	9267.000	1567.040
64.000	9265.000	1567.170
64.000	9263.000	1567.040
63.000	9261.000	1567.040
65.000	9258.000	1567.170
63.000	9254.000	1567.170
64.000	9252.000	1567.040
81.000	9255.000	1567.040
64.000	9246.000	1567.040
63.000	9248.000	1567.040
64.000	9250.000	1567.040
65.000	9250.000	1567.040
63.000	9254.000	1567.040
64.000	9246.000	1567.040
64.000	9252.000	1567.040
64.000	9244.000	1567.170
64.000	9245.000	1567.040
64.000	9244.000	1567.170
64.000	9243.000	1567.170
79.000	9245.000	1567.040
65.000	9238.000	1567.170
64.000	9247.000	1567.040
64.000	9233.000	1567.040
64.000	9239.000	1567.040
64.000	9238.000	1566.920
63.000	9233.000	1567.170
65.000	9236.000	1567.040
63.000	9239.000	1567.040
64.000	9239.000	1567.040
64.000	9238.000	1567.170
64.000	9230.000	1567.040
81.000	9235.000	1567.040
63.000	9228.000	1567.040
64.000	9231.000	1567.040
65.000	9226.000	1567.040
64.000	9224.000	1567.040
63.000	9227.000	1567.040
65.000	9227.000	1567.040
63.000	9222.000	1567.040
63.000	9226.000	1567.170
65.000	9228.000	1567.040
64.000	9214.000	1567.040
63.000	9214.000	1567.040
81.000	9209.000	1567.040
63.000	9216.000	1567.040
65.000	9218.000	1567.170
63.000	9214.000	1567.040
64.000	9214.000	1567.040
65.000	9221.000	1567.170
64.000	9211.000	1566.920
64.000	9215.000	1567.040
63.000	9210.000	1567.040
65.000	9209.000	1567.040
64.000	9215.000	1567.040
63.000	9211.000	1567.040
80.000	9203.000	1567.040
64.000	9206.000	1567.170
65.000	9202.000	1567.040
63.000	9205.000	1566.920
64.000	9202.000	1567.040
64.000	9201.000	1567.040
64.000	9187.000	1567.040
64.000	9196.000	1567.040
64.000	9200.000	1567.040
64.000	9192.000	1567.170
63.000	9185.000	1567.040
65.000	9180.000	1567.040
80.000	9185.000	1567.040
64.000	9174.000	1567.040
63.000	9182.000	1567.040
64.000	9174.000	1567.040
65.000	9183.000	1567.040
63.000	9173.000	1567.170
64.000	9179.000	1567.040
65.000	9175.000	1567.040
63.000	9173.000	1567.040
65.000	9169.000	1567.040
63.000	9168.000	1567.170
64.000	9160.000	1567.040
80.000	9164.000	1567.040
65.000	9165.000	1567.040
63.000	9157.000	1567.040
64.000	9155.000	1567.040
64.000	9155.000	1567.170
64.000	9148.000	1567.040
64.000	9149.000	1567.170
64.000	9149.000	1567.170
64.000	9141.000	1567.040
64.000	9143.000	1567.040
63.000	9155.000	1567.040
65.000	9142.000	1567.040
79.000	9138.000	1567.040
65.000	9140.000	1567.170
63.000	9135.000	1567.040
64.000	9136.000	1567.170
64.000	9124.000	1567.040
65.000	9124.000	1567.040
64.000	9125.000	1567.040
64.000	9126.000	1567.040
64.000	9122.000	1567.170
63.000	9106.000	1567.170
64.000	9115.000	1567.040
65.000	9111.000	1567.040
80.000	9109.000	1567.040
63.000	9108.000	1567.040
65.000	9099.000	1567.040
63.000	9100.000	1567.170
64.000	9098.000	1566.920
64.000	9086.000	1567.040
64.000	9091.000	1567.040
64.000	9089.000	1566.920
64.000	9087.000	1567.170
