Loop Time (ms)	IR (16 bit)	Force (N)
260.000	9669.000	1529.990
53.000	9671.000	1529.990
81.000	9675.000	1529.990
63.000	9672.000	1530.120
65.000	9675.000	1529.990
63.000	9673.000	1530.120
64.000	9673.000	1530.120
64.000	9675.000	1530.250
64.000	9676.000	1529.990
65.000	9679.000	1530.120
63.000	9679.000	1529.990
65.000	9682.000	1530.120
63.000	9685.000	1529.990
64.000	9684.000	1530.120
80.000	9682.000	1530.120
65.000	9681.000	1529.990
63.000	9688.000	1530.120
64.000	9689.000	1529.990
64.000	9689.000	1530.120
64.000	9691.000	1529.990
64.000	9690.000	1529.990
65.000	9692.000	1530.120
63.000	9692.000	1529.990
64.000	9694.000	1530.120
64.000	9692.000	1530.120
64.000	9693.000	1530.120
80.000	9694.000	1529.990
64.000	9694.000	1530.120
64.000	9697.000	1530.120
64.000	9697.000	1530.120
64.000	9701.000	1530.250
64.000	9705.000	1530.120
63.000	9705.000	1529.990
66.000	9702.000	1530.120
63.000	9704.000	1530.120
64.000	9708.000	1530.120
64.000	9708.000	1530.120
64.000	9706.000	1530.120
80.000	9709.000	1530.120
63.000	9709.000	1530.120
65.000	9713.000	1530.120
63.000	9712.000	1530.120
64.000	9715.000	1530.120
65.000	9714.000	1530.120
63.000	9711.000	1530.120
64.000	9716.000	1530.120
64.000	9717.000	1530.120
64.000	9720.000	1530.120
64.000	9714.000	1530.120
64.000	9722.000	1530.120
80.000	9719.000	1530.250
64.000	9718.000	1530.120
64.000	9720.000	1530.120
64.000	9726.000	1530.250
64.000	9723.000	1530.250
64.000	9721.000	1530.380
64.000	9725.000	1530.250
63.000	9723.000	1530.250
65.000	9728.000	1530.250
63.000	9727.000	1530.120
64.000	9733.000	1530.120
65.000	9733.000	1530.250
63.000	9730.000	1530.250
81.000	9730.000	1530.250
63.000	9734.000	1530.250
64.000	9736.000	1530.250
64.000	9737.000	1530.250
65.000	9740.000	1530.250
63.000	9734.000	1530.120
65.000	9736.000	1530.250
64.000	9737.000	1530.120
64.000	9743.000	1530.250
64.000	9738.000	1530.120
63.000	9739.000	1530.120
64.000	9741.000	1530.250
80.000	9742.000	1530.250
64.000	9743.000	1530.250
64.000	9738.000	1530.250
64.000	9741.000	1530.250
64.000	9750.000	1530.380
63.000	9746.000	1530.250
64.000	9747.000	1530.250
65.000	9752.000	1530.250
63.000	9748.000	1530.250
65.000	9747.000	1530.250
64.000	9748.000	1530.250
64.000	9752.000	1530.250
80.000	9750.000	1530.250
64.000	9748.000	1530.380
64.000	9754.000	1530.250
64.000	9752.000	1530.250
63.000	9752.000	1530.380
64.000	9756.000	1530.380
64.000	9757.000	1530.250
64.000	9752.000	1530.380
65.000	9755.000	1530.250
64.000	9759.000	1530.250
64.000	9757.000	1530.250
63.000	9757.000	1530.250
80.000	9761.000	1530.250
64.000	9759.000	1530.250
64.000	9759.000	1530.250
64.000	9763.000	1530.380
64.000	9760.000	1530.250
64.000	9766.000	1530.250
64.000	9761.000	1530.250
65.000	9758.000	1530.250
63.000	9762.000	1530.250
64.000	9764.000	1530.380
65.000	9762.000	1530.250
63.000	9765.000	1530.250
80.000	9767.000	1530.250
64.000	9768.000	1530.380
64.000	9770.000	1530.380
64.000	9769.000	1530.250
63.000	9770.000	1530.380
65.000	9773.000	1530.250
64.000	9769.000	1530.380
63.000	9771.000	1530.380
64.000	9773.000	1530.380
65.000	9768.000	1530.250
64.000	9780.000	1530.250
63.000	9775.000	1530.380
80.000	9776.000	1530.380
65.000	9774.000	1530.380
64.000	9782.000	1530.250
63.000	9775.000	1530.250
66.000	9781.000	1530.250
63.000	9779.000	1530.250
64.000	9781.000	1530.380
63.000	9781.000	1530.380
64.000	9779.000	1530.380
64.000	9781.000	1530.380
64.000	9783.000	1530.380
65.000	9782.000	1530.510
79.000	9779.000	1530.250
65.000	9788.000	1530.510
63.000	9783.000	1530.380
64.000	9782.000	1530.380
64.000	9780.000	1530.380
64.000	9787.000	1530.380
64.000	9788.000	1530.510
64.000	9786.000	1530.380
64.000	9794.000	1530.380
64.000	9786.000	1530.380
64.000	9792.000	1530.380
64.000	9788.000	1530.380
80.000	9794.000	1530.380
65.000	9795.000	1530.250
62.000	9787.000	1530.380
64.000	9792.000	1530.380
65.000	9795.000	1530.380
64.000	9795.000	1530.380
63.000	9796.000	1530.380
64.000	9794.000	1530.380
67.000	9796.000	1530.380
61.000	9800.000	1530.380
65.000	9794.000	1530.380
64.000	9799.000	1530.380
80.000	9807.000	1530.250
63.000	9815.000	1530.380
82.000	9830.000	1530.510
60.000	9845.000	1530.380
50.000	9858.000	1530.380
64.000	9871.000	1530.380
64.000	9880.000	1530.380
64.000	9898.000	1530.510
64.000	9917.000	1530.380
63.000	9930.000	1530.250
65.000	9946.000	1530.380
64.000	9955.000	1530.380
80.000	9978.000	1530.380
64.000	9995.000	1530.380
64.000	10011.000	1530.510
64.000	10031.000	1530.380
64.000	10044.000	1530.380
64.000	10065.000	1530.380
64.000	10084.000	1530.380
64.000	10106.000	1530.380
64.000	10121.000	1530.380
64.000	10143.000	1530.510
64.000	10165.000	1530.510
63.000	10187.000	1530.510
80.000	10208.000	1530.510
64.000	10234.000	1530.510
65.000	10253.000	1530.380
64.000	10277.000	1530.510
64.000	10304.000	1530.380
64.000	10327.000	1530.380
64.000	10355.000	1530.380
63.000	10384.000	1530.380
65.000	10413.000	1530.510
64.000	10439.000	1530.380
64.000	10472.000	1530.380
63.000	10507.000	1530.510
81.000	10534.000	1530.380
63.000	10567.000	1530.510
64.000	10605.000	1530.510
65.000	10635.000	1530.510
63.000	10676.000	1530.510
64.000	10704.000	1530.380
64.000	10749.000	1530.510
64.000	10791.000	1530.510
64.000	10823.000	1530.380
64.000	10874.000	1530.380
64.000	10911.000	1530.510
64.000	10962.000	1530.760
80.000	10995.000	1531.020
64.000	11036.000	1531.400
64.000	11088.000	1531.780
64.000	11140.000	1532.300
64.000	11195.000	1532.810
63.000	11249.000	1533.570
66.000	11329.000	1534.470
62.000	11424.000	1535.360
64.000	11553.000	1536.260
66.000	11663.000	1537.410
63.000	11764.000	1538.560
64.000	11860.000	1539.960
63.000	11952.000	1541.370
80.000	12033.000	1543.160
65.000	12073.000	1544.690
63.000	12062.000	1546.480
64.000	12058.000	1548.530
65.000	12041.000	1550.440
63.000	12026.000	1552.620
65.000	12040.000	1555.050
63.000	12086.000	1557.600
64.000	12169.000	1560.290
65.000	12266.000	1563.100
63.000	12376.000	1565.910
64.000	12468.000	1568.590
80.000	12568.000	1571.410
64.000	12710.000	1574.090
63.000	12879.000	1576.650
65.000	13089.000	1579.200
64.000	13834.000	1581.630
64.000	14363.000	1584.060
64.000	14675.000	1585.980
64.000	14924.000	1588.020
64.000	15212.000	1589.940
63.000	15482.000	1591.470
65.000	15617.000	1592.880
63.000	15728.000	1594.160
81.000	15719.000	1593.130
63.000	15758.000	1590.710
65.000	15812.000	1587.770
64.000	15866.000	1584.440
64.000	15849.000	1580.860
63.000	15791.000	1577.410
65.000	15691.000	1573.200
64.000	15556.000	1569.230
64.000	15401.000	1565.400
63.000	15173.000	1561.560
64.000	14801.000	1558.110
65.000	14308.000	1554.790
79.000	13668.000	1551.590
65.000	12752.000	1548.910
63.000	11890.000	1546.480
64.000	11238.000	1544.440
64.000	10786.000	1542.780
64.000	10469.000	1541.110
64.000	10246.000	1539.710
64.000	10074.000	1538.050
63.000	9948.000	1536.390
65.000	9816.000	1535.360
64.000	9780.000	1534.470
64.000	9787.000	1533.700
80.000	9799.000	1533.060
64.000	9813.000	1532.420
64.000	9840.000	1531.780
64.000	9863.000	1531.140
64.000	9890.000	1530.890
63.000	9915.000	1530.380
65.000	9945.000	1530.120
64.000	9959.000	1529.990
64.000	9981.000	1529.740
64.000	9997.000	1529.610
64.000	10012.000	1529.740
64.000	10021.000	1529.480
80.000	10027.000	1529.610
64.000	10018.000	1529.610
64.000	10033.000	1529.870
63.000	10070.000	1529.740
65.000	10090.000	1529.870
63.000	10088.000	1529.990
64.000	10072.000	1529.990
64.000	10062.000	1529.990
64.000	10057.000	1529.990
64.000	10042.000	1530.120
64.000	10026.000	1530.120
63.000	10013.000	1529.990
81.000	10002.000	1530.250
64.000	9983.000	1530.120
64.000	9969.000	1530.250
64.000	9953.000	1530.250
63.000	9946.000	1530.120
64.000	9932.000	1530.250
65.000	9925.000	1530.250
63.000	9924.000	1530.250
65.000	9925.000	1530.250
64.000	9919.000	1530.250
64.000	9914.000	1530.250
64.000	9909.000	1530.380
79.000	9910.000	1530.380
65.000	9904.000	1530.250
64.000	9897.000	1530.380
63.000	9893.000	1530.250
64.000	9885.000	1530.250
65.000	9879.000	1530.380
64.000	9873.000	1530.380
64.000	9865.000	1530.250
64.000	9860.000	1530.380
64.000	9854.000	1530.380
63.000	9855.000	1530.380
65.000	9847.000	1530.380
79.000	9839.000	1530.510
64.000	9832.000	1530.510
64.000	9824.000	1530.510
66.000	9817.000	1530.380
62.000	9817.000	1530.510
64.000	9803.000	1530.510
64.000	9801.000	1530.510
64.000	9793.000	1530.510
64.000	9792.000	1530.380
64.000	9783.000	1530.510
64.000	9783.000	1530.630
63.000	9770.000	1530.510
80.000	9760.000	1530.510
66.000	9760.000	1530.510
63.000	9769.000	1530.380
63.000	9779.000	1530.510
65.000	9783.000	1530.510
64.000	9802.000	1530.630
64.000	9807.000	1530.630
64.000	9812.000	1530.630
63.000	9821.000	1530.630
65.000	9828.000	1530.510
64.000	9832.000	1530.630
64.000	9830.000	1530.510
79.000	9841.000	1530.630
65.000	9848.000	1530.510
63.000	9850.000	1530.630
64.000	9857.000	1530.760
65.000	9856.000	1530.630
63.000	9861.000	1530.630
64.000	9871.000	1530.760
64.000	9873.000	1530.630
64.000	9876.000	1530.630
64.000	9882.000	1530.630
64.000	9884.000	1530.510
64.000	9883.000	1530.630
81.000	9886.000	1530.630
94.000	9897.000	1530.630
33.000	9900.000	1530.630
63.000	9898.000	1530.760
65.000	9904.000	1530.630
67.000	9910.000	1530.760
60.000	9910.000	1530.760
65.000	9914.000	1530.630
64.000	9914.000	1530.630
63.000	9917.000	1530.630
65.000	9926.000	1530.630
63.000	9931.000	1530.630
80.000	9932.000	1530.760
64.000	9933.000	1530.760
64.000	9934.000	1530.760
65.000	9939.000	1530.760
63.000	9943.000	1530.760
65.000	9940.000	1530.630
63.000	9950.000	1530.760
64.000	9954.000	1530.890
65.000	9953.000	1530.760
64.000	9950.000	1530.760
63.000	9957.000	1530.760
64.000	9962.000	1530.630
80.000	9972.000	1530.760
64.000	9966.000	1530.760
64.000	9974.000	1530.760
63.000	9975.000	1530.760
64.000	9977.000	1530.760
65.000	9979.000	1530.890
64.000	9983.000	1530.760
63.000	9989.000	1530.760
65.000	9992.000	1530.760
64.000	9995.000	1530.760
64.000	9998.000	1530.760
64.000	10000.000	1530.630
80.000	10005.000	1530.760
63.000	10001.000	1530.890
65.000	10008.000	1530.760
64.000	10017.000	1530.630
65.000	10016.000	1530.760
62.000	10022.000	1530.760
79.000	10023.000	1530.760
50.000	10029.000	1530.760
70.000	10033.000	1530.890
57.000	10034.000	1530.760
64.000	10034.000	1530.890
65.000	10038.000	1530.630
79.000	10039.000	1530.760
65.000	10045.000	1530.890
63.000	10045.000	1530.890
64.000	10049.000	1530.890
65.000	10051.000	1530.630
63.000	10055.000	1530.890
64.000	10055.000	1530.890
64.000	10056.000	1530.890
64.000	10063.000	1530.760
64.000	10061.000	1530.890
65.000	10065.000	1530.890
63.000	10068.000	1530.760
64.000	10065.000	1530.890
79.000	10067.000	1530.890
65.000	10073.000	1530.890
63.000	10074.000	1530.890
66.000	10076.000	1530.890
63.000	10076.000	1530.760
64.000	10083.000	1530.890
64.000	10084.000	1530.760
63.000	10082.000	1530.760
64.000	10085.000	1530.760
65.000	10089.000	1530.760
63.000	10088.000	1530.890
65.000	10094.000	1530.760
79.000	10098.000	1530.760
64.000	10112.000	1530.890
64.000	10125.000	1530.890
65.000	10141.000	1530.760
64.000	10160.000	1530.890
64.000	10174.000	1530.890
63.000	10192.000	1530.890
64.000	10207.000	1530.890
65.000	10219.000	1530.890
63.000	10239.000	1530.890
64.000	10253.000	1530.890
64.000	10274.000	1530.760
80.000	10295.000	1531.020
64.000	10308.000	1530.890
64.000	10329.000	1530.760
64.000	10351.000	1531.020
64.000	10371.000	1530.890
65.000	10391.000	1530.760
63.000	10413.000	1530.890
64.000	10433.000	1530.890
64.000	10457.000	1531.020
64.000	10483.000	1530.890
64.000	10502.000	1530.890
64.000	10526.000	1530.890
80.000	10550.000	1531.020
64.000	10577.000	1530.890
63.000	10604.000	1530.890
65.000	10627.000	1530.890
63.000	10657.000	1530.890
64.000	10684.000	1530.890
64.000	10713.000	1530.890
65.000	10742.000	1530.890
63.000	10769.000	1530.890
65.000	10805.000	1531.020
63.000	10838.000	1530.760
65.000	10870.000	1530.890
79.000	10910.000	1530.890
65.000	10942.000	1530.890
64.000	10985.000	1530.890
63.000	11017.000	1530.890
64.000	11059.000	1530.890
64.000	11104.000	1531.020
64.000	11147.000	1531.020
64.000	11184.000	1531.020
64.000	11231.000	1530.890
65.000	11279.000	1531.020
63.000	11322.000	1531.020
64.000	11370.000	1531.140
80.000	11407.000	1531.270
64.000	11457.000	1531.660
64.000	11503.000	1532.040
63.000	11552.000	1532.550
65.000	11610.000	1533.190
64.000	11669.000	1533.830
63.000	11736.000	1534.600
64.000	11814.000	1535.490
65.000	11899.000	1536.390
64.000	11992.000	1537.660
63.000	12102.000	1538.940
65.000	12204.000	1540.220
80.000	12294.000	1541.630
64.000	12374.000	1543.290
63.000	12423.000	1544.950
65.000	12421.000	1546.740
63.000	12399.000	1548.530
64.000	12396.000	1550.570
64.000	12409.000	1552.750
64.000	12427.000	1555.170
64.000	12494.000	1557.860
64.000	12587.000	1560.410
64.000	12701.000	1563.100
64.000	12811.000	1565.910
80.000	12930.000	1568.720
64.000	13053.000	1571.410
64.000	13223.000	1574.220
64.000	13413.000	1576.770
64.000	13637.000	1579.330
64.000	14286.000	1581.760
64.000	14585.000	1584.060
64.000	14871.000	1586.230
64.000	15125.000	1588.150
64.000	15387.000	1589.940
63.000	15669.000	1591.730
65.000	15788.000	1593.130
80.000	15869.000	1594.280
64.000	15866.000	1593.390
64.000	15883.000	1590.960
63.000	15956.000	1588.020
64.000	16013.000	1584.830
64.000	15992.000	1581.250
64.000	15924.000	1577.410
65.000	15847.000	1573.200
63.000	15732.000	1569.490
64.000	15599.000	1565.650
64.000	15421.000	1561.820
64.000	15125.000	1558.240
81.000	14688.000	1554.920
63.000	14117.000	1551.850
64.000	13313.000	1549.170
64.000	12320.000	1546.740
64.000	11530.000	1544.690
64.000	10976.000	1542.780
64.000	10591.000	1541.240
64.000	10317.000	1539.840
64.000	10128.000	1538.560
64.000	9975.000	1536.900
64.000	9833.000	1535.490
64.000	9788.000	1534.600
80.000	9794.000	1533.960
63.000	9797.000	1533.190
65.000	9819.000	1532.550
64.000	9850.000	1532.040
63.000	9872.000	1531.400
64.000	9904.000	1530.890
64.000	9924.000	1530.510
64.000	9958.000	1530.380
64.000	9977.000	1530.120
65.000	9995.000	1529.870
63.000	10012.000	1529.740
64.000	10026.000	1529.610
81.000	10038.000	1529.740
63.000	10049.000	1529.740
64.000	10037.000	1529.870
65.000	10038.000	1529.990
63.000	10050.000	1529.990
64.000	10076.000	1529.990
64.000	10090.000	1530.120
64.000	10089.000	1530.120
64.000	10076.000	1529.990
64.000	10066.000	1530.250
64.000	10053.000	1530.250
64.000	10038.000	1530.250
80.000	10027.000	1530.120
64.000	10007.000	1530.250
64.000	9994.000	1530.250
63.000	9981.000	1530.250
65.000	9964.000	1530.380
63.000	9951.000	1530.250
65.000	9930.000	1530.380
64.000	9918.000	1530.380
63.000	9907.000	1530.510
64.000	9890.000	1530.380
65.000	9880.000	1530.380
63.000	9879.000	1530.380
81.000	9872.000	1530.510
64.000	9878.000	1530.510
64.000	9870.000	1530.380
63.000	9865.000	1530.380
64.000	9865.000	1530.510
64.000	9864.000	1530.510
64.000	9853.000	1530.510
64.000	9856.000	1530.510
65.000	9844.000	1530.510
64.000	9840.000	1530.510
63.000	9838.000	1530.510
64.000	9830.000	1530.510
80.000	9827.000	1530.510
64.000	9820.000	1530.510
64.000	9817.000	1530.510
63.000	9813.000	1530.510
64.000	9805.000	1530.630
65.000	9805.000	1530.630
64.000	9800.000	1530.630
64.000	9793.000	1530.630
63.000	9788.000	1530.630
64.000	9788.000	1530.630
64.000	9783.000	1530.630
65.000	9782.000	1530.630
79.000	9772.000	1530.630
64.000	9770.000	1530.630
64.000	9770.000	1530.630
64.000	9773.000	1530.630
64.000	9788.000	1530.630
65.000	9794.000	1530.630
64.000	9803.000	1530.630
63.000	9806.000	1530.510
65.000	9814.000	1530.630
63.000	9815.000	1530.630
65.000	9822.000	1530.760
63.000	9829.000	1530.630
80.000	9832.000	1530.630
64.000	9850.000	1530.630
64.000	9860.000	1530.630
64.000	9866.000	1530.760
64.000	9875.000	1530.630
63.000	9878.000	1530.630
65.000	9887.000	1530.760
63.000	9892.000	1530.760
65.000	9894.000	1530.760
64.000	9904.000	1530.760
63.000	9908.000	1530.760
64.000	9911.000	1530.760
81.000	9913.000	1530.760
64.000	9917.000	1530.760
64.000	9919.000	1530.760
63.000	9925.000	1530.760
64.000	9925.000	1530.630
65.000	9934.000	1530.760
63.000	9937.000	1530.760
65.000	9939.000	1530.760
64.000	9944.000	1530.760
63.000	9948.000	1530.760
64.000	9954.000	1530.890
65.000	9954.000	1530.760
64.000	9955.000	1530.760
79.000	9960.000	1530.760
65.000	9965.000	1530.760
64.000	9968.000	1530.760
63.000	9971.000	1530.890
65.000	9974.000	1530.890
63.000	9974.000	1530.760
64.000	9977.000	1530.760
65.000	9986.000	1530.890
63.000	9985.000	1530.760
64.000	9986.000	1530.760
64.000	9994.000	1530.890
64.000	9995.000	1530.760
80.000	9996.000	1530.890
64.000	10000.000	1530.760
64.000	10003.000	1530.760
64.000	10003.000	1530.890
64.000	10013.000	1530.890
63.000	10010.000	1530.890
64.000	10019.000	1530.760
64.000	10022.000	1530.890
64.000	10025.000	1530.890
65.000	10026.000	1530.890
64.000	10029.000	1530.890
64.000	10033.000	1530.890
79.000	10034.000	1530.890
64.000	10034.000	1530.890
64.000	10042.000	1530.890
64.000	10043.000	1530.890
65.000	10048.000	1530.890
64.000	10044.000	1530.890
63.000	10049.000	1530.890
65.000	10052.000	1530.760
64.000	10056.000	1530.760
63.000	10059.000	1530.890
64.000	10059.000	1530.760
65.000	10064.000	1530.760
79.000	10065.000	1531.020
64.000	10066.000	1530.890
65.000	10071.000	1530.890
63.000	10067.000	1530.890
64.000	10072.000	1530.890
63.000	10072.000	1531.020
65.000	10076.000	1530.890
64.000	10078.000	1530.890
64.000	10074.000	1530.890
64.000	10075.000	1530.890
63.000	10081.000	1531.020
64.000	10081.000	1531.020
81.000	10086.000	1530.890
63.000	10086.000	1530.890
64.000	10086.000	1531.020
64.000	10087.000	1531.020
65.000	10091.000	1530.890
63.000	10089.000	1530.890
64.000	10090.000	1531.020
65.000	10093.000	1530.890
63.000	10091.000	1531.020
65.000	10093.000	1531.020
63.000	10098.000	1531.020
64.000	10095.000	1530.890
81.000	10100.000	1531.020
63.000	10100.000	1531.020
64.000	10116.000	1531.020
65.000	10133.000	1531.020
63.000	10142.000	1531.020
65.000	10160.000	1531.020
63.000	10173.000	1530.890
64.000	10188.000	1531.020
64.000	10208.000	1531.020
63.000	10222.000	1531.020
67.000	10237.000	1531.020
62.000	10253.000	1531.020
80.000	10276.000	1531.020
64.000	10294.000	1531.020
64.000	10310.000	1531.140
63.000	10326.000	1531.020
65.000	10349.000	1531.020
64.000	10368.000	1531.020
65.000	10388.000	1531.020
62.000	10407.000	1531.020
64.000	10433.000	1531.020
65.000	10453.000	1531.020
64.000	10475.000	1531.020
63.000	10500.000	1531.020
82.000	10524.000	1531.020
63.000	10548.000	1531.140
63.000	10575.000	1531.020
64.000	10602.000	1531.020
65.000	10626.000	1531.140
63.000	10651.000	1531.140
64.000	10685.000	1531.020
64.000	10707.000	1531.140
64.000	10741.000	1531.140
64.000	10769.000	1531.020
64.000	10803.000	1531.020
64.000	10835.000	1531.020
80.000	10869.000	1531.140
64.000	10915.000	1530.890
64.000	10947.000	1531.140
65.000	10984.000	1531.020
63.000	11020.000	1531.140
64.000	11058.000	1531.020
64.000	11092.000	1531.020
65.000	11145.000	1531.020
62.000	11187.000	1531.020
64.000	11229.000	1531.020
65.000	11277.000	1531.140
63.000	11320.000	1531.270
81.000	11359.000	1531.140
65.000	11405.000	1531.140
63.000	11452.000	1531.780
63.000	11492.000	1531.910
64.000	11548.000	1532.550
64.000	11599.000	1532.930
64.000	11667.000	1533.700
64.000	11728.000	1534.470
64.000	11802.000	1535.360
64.000	11891.000	1536.260
65.000	11982.000	1537.150
64.000	12091.000	1538.430
79.000	12195.000	1539.840
65.000	12289.000	1541.240
63.000	12369.000	1542.780
64.000	12428.000	1544.310
64.000	12439.000	1546.230
64.000	12416.000	1548.020
65.000	12413.000	1550.060
63.000	12414.000	1552.110
64.000	12433.000	1554.530
64.000	12481.000	1557.090
64.000	12563.000	1559.650
64.000	12677.000	1562.460
80.000	12809.000	1565.140
64.000	12912.000	1568.080
63.000	13046.000	1570.770
65.000	13186.000	1573.580
63.000	13379.000	1576.130
65.000	13606.000	1578.690
63.000	14184.000	1581.250
64.000	14546.000	1583.680
65.000	14848.000	1585.720
63.000	15152.000	1587.770
65.000	15385.000	1589.810
64.000	15654.000	1591.470
80.000	15851.000	1593.010
63.000	15903.000	1594.280
65.000	15944.000	1594.030
84.000	15956.000	1591.600
43.000	16017.000	1588.790
64.000	16064.000	1585.470
64.000	16049.000	1582.010
64.000	16008.000	1578.440
64.000	15911.000	1574.350
64.000	15812.000	1570.260
64.000	15691.000	1566.420
64.000	15518.000	1562.590
79.000	15245.000	1559.140
65.000	14857.000	1555.680
64.000	14303.000	1552.490
64.000	13550.000	1549.680
63.000	12571.000	1547.250
64.000	11751.000	1545.080
65.000	11156.000	1543.160
64.000	10732.000	1541.500
63.000	10434.000	1540.220
64.000	10205.000	1538.810
64.000	10043.000	1537.150
65.000	9880.000	1535.750
80.000	9813.000	1534.980
63.000	9812.000	1533.960
64.000	9816.000	1533.450
65.000	9831.000	1532.810
64.000	9860.000	1532.040
63.000	9882.000	1531.400
64.000	9905.000	1531.140
65.000	9937.000	1530.630
63.000	9960.000	1530.380
65.000	9981.000	1530.120
63.000	10003.000	1529.990
64.000	10021.000	1529.870
64.000	10029.000	1529.870
80.000	10039.000	1529.870
64.000	10047.000	1529.870
64.000	10036.000	1529.990
64.000	10038.000	1529.990
64.000	10036.000	1530.120
63.000	10052.000	1530.120
65.000	10072.000	1530.120
64.000	10082.000	1530.120
64.000	10079.000	1530.250
64.000	10066.000	1530.250
64.000	10057.000	1530.250
64.000	10038.000	1530.250
80.000	10027.000	1530.250
63.000	10010.000	1530.380
64.000	9991.000	1530.250
65.000	9978.000	1530.380
63.000	9966.000	1530.380
65.000	9948.000	1530.380
63.000	9933.000	1530.510
64.000	9919.000	1530.510
64.000	9904.000	1530.510
64.000	9891.000	1530.510
64.000	9880.000	1530.510
65.000	9868.000	1530.510
80.000	9862.000	1530.510
63.000	9860.000	1530.510
64.000	9857.000	1530.510
64.000	9851.000	1530.510
64.000	9850.000	1530.510
64.000	9847.000	1530.510
65.000	9847.000	1530.510
63.000	9841.000	1530.510
65.000	9836.000	1530.630
73.000	9830.000	1530.510
59.000	9826.000	1530.630
59.000	9822.000	1530.630
80.000	9812.000	1530.630
64.000	9807.000	1530.630
64.000	9803.000	1530.630
64.000	9798.000	1530.630
64.000	9793.000	1530.630
63.000	9792.000	1530.760
64.000	9790.000	1530.630
65.000	9787.000	1530.630
63.000	9775.000	1530.630
64.000	9776.000	1530.630
64.000	9772.000	1530.630
65.000	9771.000	1530.630
80.000	9762.000	1530.630
64.000	9761.000	1530.630
64.000	9755.000	1530.760
64.000	9762.000	1530.760
63.000	9777.000	1530.760
64.000	9787.000	1530.890
64.000	9799.000	1530.630
64.000	9800.000	1530.630
65.000	9807.000	1530.760
63.000	9817.000	1530.630
65.000	9819.000	1530.760
90.000	9827.000	1530.760
53.000	9835.000	1530.760
63.000	9840.000	1530.760
65.000	9841.000	1530.760
64.000	9847.000	1530.630
64.000	9849.000	1530.760
64.000	9857.000	1530.760
64.000	9876.000	1530.760
64.000	9889.000	1530.760
64.000	9893.000	1530.760
64.000	9901.000	1530.760
64.000	9905.000	1530.890
64.000	9910.000	1530.760
80.000	9914.000	1530.760
64.000	9917.000	1530.760
63.000	9924.000	1530.760
64.000	9928.000	1530.760
65.000	9930.000	1530.760
64.000	9935.000	1531.020
63.000	9936.000	1530.890
64.000	9942.000	1530.890
64.000	9942.000	1530.760
65.000	9946.000	1530.890
64.000	9955.000	1530.890
63.000	9952.000	1530.890
80.000	9961.000	1530.890
64.000	9962.000	1530.890
65.000	9965.000	1530.890
63.000	9970.000	1530.760
65.000	9973.000	1530.890
64.000	9973.000	1530.890
63.000	9979.000	1530.890
64.000	9984.000	1530.760
64.000	9979.000	1530.890
64.000	9988.000	1530.890
64.000	9995.000	1530.890
64.000	9997.000	1530.890
80.000	9999.000	1531.020
64.000	10001.000	1531.020
64.000	10001.000	1531.020
63.000	10007.000	1531.020
64.000	10011.000	1530.890
65.000	10016.000	1530.890
64.000	10018.000	1530.890
63.000	10024.000	1530.890
65.000	10028.000	1531.020
63.000	10026.000	1530.890
65.000	10029.000	1530.890
63.000	10032.000	1531.020
81.000	10034.000	1530.890
64.000	10038.000	1530.890
63.000	10041.000	1530.890
64.000	10047.000	1530.890
64.000	10048.000	1530.890
64.000	10050.000	1531.020
65.000	10053.000	1531.020
64.000	10053.000	1530.890
63.000	10056.000	1531.020
65.000	10062.000	1531.020
63.000	10060.000	1531.020
64.000	10066.000	1530.890
80.000	10065.000	1531.020
64.000	10068.000	1530.890
64.000	10070.000	1531.020
64.000	10073.000	1531.020
64.000	10072.000	1531.020
64.000	10074.000	1531.020
64.000	10073.000	1531.020
64.000	10078.000	1531.020
64.000	10081.000	1531.020
64.000	10079.000	1531.020
64.000	10082.000	1531.020
63.000	10080.000	1531.020
80.000	10085.000	1531.020
65.000	10086.000	1531.020
63.000	10086.000	1531.020
64.000	10087.000	1531.020
64.000	10087.000	1531.020
64.000	10093.000	1531.140
64.000	10089.000	1531.020
64.000	10092.000	1531.020
64.000	10089.000	1531.020
64.000	10094.000	1530.890
65.000	10095.000	1531.140
64.000	10096.000	1531.020
79.000	10096.000	1531.020
65.000	10096.000	1531.140
63.000	10101.000	1531.020
65.000	10118.000	1531.140
63.000	10128.000	1531.020
65.000	10142.000	1531.140
63.000	10159.000	1531.140
64.000	10172.000	1531.140
64.000	10190.000	1531.020
64.000	10204.000	1531.140
64.000	10222.000	1531.140
64.000	10234.000	1531.140
80.000	10254.000	1531.140
64.000	10267.000	1531.020
63.000	10288.000	1531.140
65.000	10309.000	1531.140
63.000	10326.000	1531.020
65.000	10343.000	1531.020
63.000	10366.000	1531.140
65.000	10387.000	1531.140
64.000	10407.000	1531.020
64.000	10435.000	1531.140
64.000	10452.000	1531.140
64.000	10474.000	1531.140
63.000	10500.000	1531.020
81.000	10523.000	1531.140
64.000	10544.000	1531.140
63.000	10575.000	1531.140
65.000	10599.000	1531.020
64.000	10626.000	1531.140
64.000	10647.000	1531.270
64.000	10676.000	1531.140
64.000	10706.000	1531.140
63.000	10737.000	1531.020
64.000	10772.000	1531.140
64.000	10800.000	1531.140
64.000	10836.000	1531.140
80.000	10864.000	1531.140
64.000	10904.000	1531.140
64.000	10946.000	1531.020
64.000	10979.000	1531.140
64.000	11015.000	1531.140
63.000	11059.000	1531.140
64.000	11098.000	1531.140
65.000	11138.000	1531.140
64.000	11178.000	1531.140
64.000	11224.000	1531.140
64.000	11272.000	1531.140
64.000	11316.000	1531.140
80.000	11362.000	1531.270
64.000	11402.000	1531.400
64.000	11447.000	1531.530
64.000	11489.000	1532.040
63.000	11545.000	1532.550
64.000	11602.000	1533.060
65.000	11652.000	1533.570
64.000	11727.000	1534.340
63.000	11798.000	1535.230
65.000	11874.000	1536.130
63.000	11972.000	1537.150
64.000	12077.000	1538.300
81.000	12187.000	1539.710
64.000	12285.000	1541.110
64.000	12368.000	1542.650
63.000	12434.000	1544.310
64.000	12456.000	1546.100
64.000	12440.000	1547.890
64.000	12436.000	1549.810
65.000	12434.000	1551.980
63.000	12446.000	1554.280
64.000	12490.000	1556.840
64.000	12567.000	1559.260
64.000	12673.000	1562.080
80.000	12807.000	1564.760
64.000	12930.000	1567.570
64.000	13058.000	1570.260
63.000	13189.000	1573.070
65.000	13370.000	1575.750
63.000	13571.000	1578.180
65.000	14103.000	1580.860
64.000	14532.000	1583.160
64.000	14830.000	1585.470
63.000	15141.000	1587.510
65.000	15375.000	1589.430
64.000	15645.000	1591.220
80.000	15872.000	1592.620
63.000	15915.000	1594.030
64.000	15958.000	1594.160
65.000	15967.000	1592.240
64.000	16026.000	1589.430
63.000	16078.000	1586.230
64.000	16084.000	1582.780
65.000	16050.000	1579.330
63.000	15960.000	1575.620
64.000	15874.000	1571.280
64.000	15752.000	1567.320
64.000	15599.000	1563.480
80.000	15338.000	1559.900
65.000	14978.000	1556.450
63.000	14467.000	1553.130
64.000	13753.000	1550.320
64.000	12788.000	1547.760
64.000	11915.000	1545.590
64.000	11287.000	1543.540
64.000	10831.000	1541.880
64.000	10522.000	1540.480
64.000	10278.000	1539.070
65.000	10097.000	1537.790
63.000	9919.000	1536.260
80.000	9827.000	1535.110
64.000	9821.000	1534.340
63.000	9822.000	1533.700
65.000	9829.000	1532.930
63.000	9857.000	1532.300
65.000	9880.000	1531.660
64.000	9908.000	1531.270
64.000	9936.000	1530.760
64.000	9959.000	1530.510
64.000	9983.000	1530.380
64.000	10005.000	1530.250
64.000	10026.000	1530.120
79.000	10032.000	1529.870
64.000	10041.000	1529.870
65.000	10048.000	1529.870
63.000	10035.000	1529.990
64.000	10041.000	1529.990
64.000	10029.000	1529.990
64.000	10028.000	1530.250
64.000	10035.000	1530.250
64.000	10044.000	1530.380
64.000	10053.000	1530.250
64.000	10056.000	1530.380
64.000	10055.000	1530.380
80.000	10041.000	1530.380
64.000	10028.000	1530.510
64.000	10017.000	1530.250
64.000	10000.000	1530.510
64.000	9981.000	1530.510
64.000	9970.000	1530.510
64.000	9953.000	1530.380
64.000	9937.000	1530.510
64.000	9924.000	1530.510
64.000	9907.000	1530.510
64.000	9893.000	1530.510
63.000	9883.000	1530.510
80.000	9865.000	1530.630
65.000	9854.000	1530.630
64.000	9848.000	1530.630
63.000	9842.000	1530.760
64.000	9839.000	1530.630
65.000	9834.000	1530.510
64.000	9833.000	1530.630
63.000	9823.000	1530.510
64.000	9816.000	1530.630
65.000	9810.000	1530.630
63.000	9811.000	1530.630
65.000	9803.000	1530.760
79.000	9796.000	1530.760
64.000	9791.000	1530.630
64.000	9785.000	1530.630
64.000	9780.000	1530.760
65.000	9773.000	1530.630
63.000	9768.000	1530.760
64.000	9766.000	1530.630
65.000	9759.000	1530.760
63.000	9753.000	1530.760
64.000	9751.000	1530.760
65.000	9746.000	1530.760
63.000	9741.000	1530.760
64.000	9740.000	1530.630
80.000	9732.000	1530.890
63.000	9732.000	1530.760
65.000	9731.000	1530.760
64.000	9732.000	1530.890
63.000	9748.000	1530.760
65.000	9757.000	1530.760
64.000	9765.000	1530.760
64.000	9779.000	1530.760
63.000	9783.000	1530.760
65.000	9790.000	1530.890
63.000	9798.000	1530.890
65.000	9806.000	1530.760
79.000	9816.000	1530.890
64.000	9826.000	1530.890
64.000	9828.000	1530.760
65.000	9831.000	1530.760
63.000	9841.000	1530.890
64.000	9845.000	1530.760
64.000	9848.000	1530.890
64.000	9852.000	1530.890
64.000	9863.000	1530.890
64.000	9866.000	1530.890
64.000	9873.000	1530.890
64.000	9879.000	1531.020
80.000	9884.000	1530.890
64.000	9886.000	1530.890
64.000	9896.000	1530.890
64.000	9895.000	1530.890
64.000	9901.000	1530.890
64.000	9904.000	1530.890
64.000	9921.000	1530.890
64.000	9930.000	1531.020
64.000	9935.000	1530.760
64.000	9940.000	1530.890
63.000	9942.000	1530.890
65.000	9946.000	1530.890
80.000	9951.000	1530.890
63.000	9957.000	1530.890
65.000	9959.000	1530.890
64.000	9960.000	1530.890
63.000	9966.000	1531.020
64.000	9970.000	1530.890
64.000	9969.000	1531.020
65.000	9976.000	1531.020
64.000	9979.000	1530.890
64.000	9985.000	1530.890
63.000	9985.000	1531.020
64.000	9987.000	1531.020
80.000	9993.000	1531.020
64.000	9994.000	1531.020
64.000	9998.000	1531.020
65.000	10003.000	1531.020
63.000	10009.000	1531.020
64.000	10014.000	1531.020
64.000	10017.000	1530.890
64.000	10017.000	1531.020
64.000	10021.000	1531.020
64.000	10026.000	1531.020
64.000	10031.000	1531.020
64.000	10028.000	1531.020
80.000	10036.000	1531.020
64.000	10037.000	1530.890
64.000	10038.000	1531.020
64.000	10042.000	1531.140
64.000	10042.000	1531.020
64.000	10051.000	1531.020
64.000	10050.000	1531.020
63.000	10053.000	1531.140
64.000	10056.000	1531.140
65.000	10063.000	1531.020
63.000	10058.000	1531.140
65.000	10062.000	1531.020
80.000	10065.000	1531.020
63.000	10068.000	1531.020
64.000	10071.000	1531.020
65.000	10074.000	1531.020
63.000	10077.000	1531.020
64.000	10075.000	1531.020
64.000	10077.000	1531.140
64.000	10078.000	1531.140
64.000	10082.000	1531.020
64.000	10086.000	1531.140
64.000	10083.000	1531.140
64.000	10087.000	1531.020
80.000	10087.000	1531.140
64.000	10091.000	1531.140
64.000	10091.000	1531.140
64.000	10095.000	1531.140
64.000	10092.000	1531.020
64.000	10093.000	1531.140
63.000	10097.000	1531.020
65.000	10095.000	1531.140
64.000	10100.000	1531.140
63.000	10099.000	1531.270
65.000	10102.000	1531.020
64.000	10098.000	1531.140
80.000	10100.000	1531.140
64.000	10104.000	1531.140
64.000	10105.000	1531.140
64.000	10119.000	1531.140
63.000	10131.000	1531.140
64.000	10144.000	1531.020
65.000	10161.000	1531.140
63.000	10173.000	1531.140
65.000	10192.000	1531.140
64.000	10207.000	1531.140
63.000	10224.000	1531.140
65.000	10240.000	1531.140
79.000	10256.000	1531.140
64.000	10271.000	1531.140
64.000	10294.000	1531.140
64.000	10309.000	1531.140
64.000	10332.000	1531.270
64.000	10349.000	1531.140
64.000	10368.000	1531.140
64.000	10389.000	1531.020
64.000	10414.000	1531.140
65.000	10432.000	1531.140
63.000	10453.000	1531.140
64.000	10479.000	1531.140
80.000	10505.000	1531.140
64.000	10525.000	1531.270
64.000	10549.000	1531.020
64.000	10576.000	1531.140
63.000	10597.000	1531.270
64.000	10628.000	1531.140
65.000	10650.000	1531.140
63.000	10679.000	1531.270
64.000	10708.000	1531.270
64.000	10741.000	1531.140
65.000	10766.000	1531.140
63.000	10807.000	1531.140
80.000	10834.000	1531.140
65.000	10871.000	1531.140
64.000	10907.000	1531.140
63.000	10946.000	1531.140
64.000	10978.000	1531.270
64.000	11014.000	1531.270
64.000	11057.000	1531.270
64.000	11096.000	1531.140
64.000	11138.000	1531.270
64.000	11189.000	1531.270
64.000	11228.000	1531.270
64.000	11273.000	1531.270
80.000	11319.000	1531.270
63.000	11369.000	1531.270
65.000	11412.000	1531.400
63.000	11449.000	1531.660
65.000	11497.000	1532.040
64.000	11545.000	1532.420
64.000	11594.000	1532.930
64.000	11660.000	1533.700
64.000	11718.000	1534.210
63.000	11789.000	1535.110
64.000	11872.000	1536.000
64.000	11970.000	1537.020
81.000	12074.000	1538.170
64.000	12182.000	1539.580
63.000	12284.000	1540.860
64.000	12374.000	1542.390
64.000	12439.000	1544.050
64.000	12463.000	1545.720
64.000	12461.000	1547.500
64.000	12454.000	1549.290
64.000	12457.000	1551.590
64.000	12470.000	1553.900
64.000	12503.000	1556.200
64.000	12579.000	1558.880
79.000	12677.000	1561.560
65.000	12811.000	1564.380
64.000	12949.000	1567.060
64.000	13065.000	1569.870
64.000	13204.000	1572.680
64.000	13381.000	1575.370
64.000	13548.000	1577.920
64.000	14019.000	1580.480
63.000	14514.000	1582.910
64.000	14803.000	1585.210
64.000	15113.000	1587.380
65.000	15376.000	1589.300
79.000	15633.000	1591.090
64.000	15866.000	1592.750
65.000	15930.000	1594.160
63.000	15974.000	1594.160
64.000	15996.000	1592.110
64.000	16058.000	1589.560
64.000	16112.000	1586.230
64.000	16093.000	1582.780
64.000	16063.000	1579.200
64.000	15972.000	1575.240
64.000	15880.000	1571.150
64.000	15761.000	1567.320
80.000	15600.000	1563.480
65.000	15342.000	1559.770
63.000	14956.000	1556.450
64.000	14442.000	1553.260
64.000	13709.000	1550.320
65.000	12739.000	1547.760
63.000	11861.000	1545.590
64.000	11256.000	1543.540
64.000	10819.000	1541.880
64.000	10499.000	1540.480
64.000	10255.000	1539.070
64.000	10076.000	1537.790
63.000	9908.000	1536.510
81.000	9833.000	1535.110
64.000	9831.000	1534.210
64.000	9827.000	1533.570
64.000	9842.000	1532.930
64.000	9868.000	1532.300
64.000	9892.000	1531.660
63.000	9914.000	1531.270
65.000	9938.000	1530.890
64.000	9972.000	1530.510
64.000	9993.000	1530.510
63.000	10008.000	1530.250
64.000	10025.000	1530.120
80.000	10037.000	1529.990
64.000	10047.000	1529.990
64.000	10055.000	1529.990
64.000	10031.000	1530.120
64.000	10030.000	1530.120
64.000	10023.000	1530.250
64.000	10013.000	1530.250
64.000	10012.000	1530.250
64.000	10017.000	1530.250
64.000	10027.000	1530.380
64.000	10030.000	1530.380
65.000	10029.000	1530.380
79.000	10019.000	1530.380
65.000	10009.000	1530.510
63.000	9996.000	1530.510
64.000	9985.000	1530.510
63.000	9968.000	1530.510
65.000	9955.000	1530.510
64.000	9942.000	1530.630
64.000	9923.000	1530.510
64.000	9910.000	1530.630
64.000	9895.000	1530.630
64.000	9884.000	1530.510
64.000	9870.000	1530.630
80.000	9856.000	1530.630
63.000	9843.000	1530.760
65.000	9835.000	1530.760
63.000	9822.000	1530.630
65.000	9810.000	1530.630
63.000	9809.000	1530.630
65.000	9809.000	1530.630
64.000	9801.000	1530.630
63.000	9795.000	1530.630
65.000	9790.000	1530.630
63.000	9787.000	1530.760
64.000	9780.000	1530.760
80.000	9775.000	1530.630
64.000	9772.000	1530.760
64.000	9759.000	1530.760
65.000	9756.000	1530.760
63.000	9755.000	1531.020
64.000	9740.000	1530.760
64.000	9743.000	1530.890
64.000	9735.000	1530.760
64.000	9732.000	1530.890
64.000	9727.000	1530.760
64.000	9720.000	1530.890
64.000	9720.000	1530.890
80.000	9713.000	1530.890
64.000	9708.000	1530.890
64.000	9704.000	1530.890
63.000	9701.000	1530.760
64.000	9703.000	1530.890
64.000	9725.000	1531.020
65.000	9738.000	1530.760
63.000	9747.000	1530.890
65.000	9753.000	1530.890
63.000	9762.000	1531.020
65.000	9769.000	1530.890
63.000	9772.000	1530.890
81.000	9788.000	1530.890
63.000	9793.000	1530.890
64.000	9799.000	1530.890
64.000	9810.000	1530.890
65.000	9816.000	1530.760
63.000	9828.000	1530.890
64.000	9833.000	1530.890
64.000	9837.000	1531.020
64.000	9846.000	1530.890
64.000	9851.000	1530.890
64.000	9855.000	1530.890
64.000	9859.000	1531.020
80.000	9875.000	1531.020
64.000	9875.000	1530.890
64.000	9878.000	1531.020
64.000	9880.000	1530.890
64.000	9891.000	1530.890
64.000	9895.000	1530.890
64.000	9896.000	1531.020
64.000	9908.000	1531.140
64.000	9911.000	1531.020
64.000	9911.000	1531.020
64.000	9914.000	1531.140
64.000	9922.000	1531.020
80.000	9924.000	1531.020
64.000	9935.000	1531.020
64.000	9949.000	1531.020
64.000	9952.000	1531.140
63.000	9957.000	1531.020
65.000	9959.000	1530.890
63.000	9962.000	1531.140
65.000	9969.000	1531.020
63.000	9970.000	1531.140
64.000	9979.000	1531.140
64.000	9977.000	1531.020
64.000	9979.000	1531.020
81.000	9982.000	1531.020
63.000	9989.000	1531.020
64.000	9991.000	1531.020
64.000	9995.000	1531.140
64.000	9997.000	1531.020
64.000	10001.000	1531.140
64.000	10004.000	1531.020
64.000	10014.000	1531.020
64.000	10015.000	1531.020
64.000	10018.000	1531.140
64.000	10023.000	1531.140
64.000	10026.000	1531.020
80.000	10030.000	1531.140
64.000	10028.000	1531.020
64.000	10036.000	1531.140
64.000	10039.000	1531.140
63.000	10037.000	1531.020
64.000	10044.000	1531.020
65.000	10047.000	1531.020
64.000	10046.000	1531.020
63.000	10054.000	1531.140
65.000	10055.000	1531.020
64.000	10059.000	1531.140
64.000	10064.000	1531.020
79.000	10063.000	1531.140
65.000	10067.000	1531.270
64.000	10072.000	1531.140
64.000	10074.000	1531.140
64.000	10072.000	1531.020
63.000	10076.000	1531.140
64.000	10075.000	1531.270
64.000	10074.000	1531.140
64.000	10081.000	1531.140
64.000	10081.000	1531.140
64.000	10084.000	1531.270
64.000	10084.000	1531.270
81.000	10087.000	1531.020
63.000	10083.000	1531.140
64.000	10088.000	1531.140
64.000	10086.000	1531.140
64.000	10089.000	1531.270
64.000	10092.000	1531.140
64.000	10092.000	1531.140
64.000	10094.000	1531.140
64.000	10095.000	1531.140
63.000	10095.000	1531.140
64.000	10096.000	1531.140
65.000	10098.000	1531.140
64.000	10105.000	1531.140
80.000	10103.000	1531.270
64.000	10103.000	1531.270
64.000	10112.000	1531.140
64.000	10123.000	1531.140
63.000	10134.000	1531.140
64.000	10150.000	1531.020
65.000	10165.000	1531.270
64.000	10181.000	1531.140
63.000	10197.000	1531.270
65.000	10214.000	1531.140
63.000	10226.000	1531.140
65.000	10242.000	1531.270
80.000	10261.000	1531.140
63.000	10277.000	1531.270
64.000	10296.000	1531.270
64.000	10313.000	1531.270
64.000	10332.000	1531.400
64.000	10351.000	1531.270
64.000	10374.000	1531.140
64.000	10396.000	1531.270
64.000	10416.000	1531.140
64.000	10435.000	1531.270
64.000	10457.000	1531.270
64.000	10484.000	1531.140
80.000	10506.000	1531.140
64.000	10528.000	1531.140
64.000	10553.000	1531.270
63.000	10581.000	1531.270
65.000	10603.000	1531.270
64.000	10629.000	1531.270
64.000	10656.000	1531.270
64.000	10685.000	1531.400
64.000	10712.000	1531.270
63.000	10743.000	1531.270
65.000	10776.000	1531.400
63.000	10801.000	1531.270
80.000	10837.000	1531.270
64.000	10880.000	1531.270
65.000	10916.000	1531.270
63.000	10946.000	1531.140
64.000	10988.000	1531.270
64.000	11028.000	1531.400
64.000	11064.000	1531.270
64.000	11112.000	1531.400
64.000	11148.000	1531.270
64.000	11194.000	1531.270
64.000	11238.000	1531.270
64.000	11280.000	1531.270
80.000	11332.000	1531.270
63.000	11377.000	1531.530
65.000	11420.000	1531.660
64.000	11467.000	1531.910
64.000	11508.000	1532.300
64.000	11564.000	1532.680
64.000	11622.000	1533.320
64.000	11678.000	1534.080
63.000	11749.000	1534.720
65.000	11828.000	1535.490
64.000	11910.000	1536.510
63.000	12006.000	1537.660
80.000	12109.000	1538.940
64.000	12213.000	1540.220
64.000	12309.000	1541.750
64.000	12391.000	1543.290
65.000	12454.000	1544.950
64.000	12452.000	1546.740
64.000	12429.000	1548.660
63.000	12428.000	1550.570
64.000	12445.000	1552.870
64.000	12465.000	1555.170
64.000	12524.000	1557.730
64.000	12614.000	1560.410
81.000	12728.000	1563.100
63.000	12857.000	1565.780
64.000	12976.000	1568.590
63.000	13132.000	1571.410
65.000	13263.000	1574.090
64.000	13442.000	1576.650
64.000	13675.000	1579.200
64.000	14335.000	1581.630
64.000	14585.000	1584.060
64.000	14932.000	1586.360
63.000	15225.000	1588.280
64.000	15433.000	1590.190
81.000	15709.000	1591.860
64.000	15861.000	1593.390
64.000	15925.000	1594.540
63.000	15945.000	1594.160
65.000	15957.000	1591.730
63.000	16021.000	1589.040
65.000	16083.000	1585.720
63.000	16078.000	1582.270
65.000	16030.000	1578.820
64.000	15936.000	1574.730
64.000	15836.000	1570.640
64.000	15720.000	1566.800
79.000	15575.000	1562.840
65.000	15315.000	1559.140
63.000	14961.000	1555.810
64.000	14447.000	1552.870
65.000	13722.000	1549.930
64.000	12738.000	1547.500
63.000	11848.000	1545.330
64.000	11229.000	1543.290
64.000	10795.000	1541.750
64.000	10483.000	1540.350
64.000	10240.000	1538.940
64.000	10056.000	1537.790
80.000	9877.000	1536.130
64.000	9797.000	1535.110
63.000	9794.000	1534.470
64.000	9794.000	1533.450
64.000	9808.000	1532.810
65.000	9831.000	1532.300
63.000	9860.000	1531.660
65.000	9883.000	1531.270
64.000	9913.000	1530.890
64.000	9941.000	1530.630
64.000	9966.000	1530.380
63.000	9987.000	1530.250
80.000	10004.000	1530.120
65.000	10016.000	1530.120
64.000	10022.000	1529.990
63.000	10030.000	1530.120
64.000	10005.000	1530.120
64.000	10004.000	1530.250
65.000	9992.000	1530.380
64.000	9987.000	1530.380
63.000	9980.000	1530.380
65.000	9989.000	1530.380
63.000	9988.000	1530.380
64.000	9997.000	1530.510
80.000	10005.000	1530.510
64.000	9997.000	1530.510
64.000	9990.000	1530.380
64.000	9981.000	1530.510
64.000	9971.000	1530.510
64.000	9954.000	1530.630
64.000	9936.000	1530.630
63.000	9923.000	1530.630
65.000	9909.000	1530.630
64.000	9895.000	1530.760
63.000	9881.000	1530.760
65.000	9870.000	1530.630
80.000	9861.000	1530.760
64.000	9844.000	1530.630
63.000	9832.000	1530.630
65.000	9822.000	1530.630
63.000	9811.000	1530.630
64.000	9804.000	1530.760
65.000	9793.000	1530.890
63.000	9791.000	1530.760
65.000	9787.000	1530.890
63.000	9783.000	1530.760
64.000	9780.000	1530.760
64.000	9772.000	1530.890
81.000	9767.000	1530.890
64.000	9764.000	1530.890
63.000	9759.000	1530.890
64.000	9759.000	1530.890
65.000	9749.000	1530.890
63.000	9741.000	1530.890
64.000	9738.000	1530.890
64.000	9737.000	1530.890
64.000	9733.000	1530.760
64.000	9724.000	1530.890
64.000	9717.000	1530.890
64.000	9717.000	1530.890
80.000	9715.000	1530.890
64.000	9709.000	1530.890
64.000	9704.000	1530.890
64.000	9703.000	1530.890
64.000	9697.000	1530.890
64.000	9701.000	1530.890
64.000	9721.000	1530.760
64.000	9728.000	1530.760
64.000	9740.000	1530.890
63.000	9747.000	1530.760
64.000	9757.000	1530.890
64.000	9766.000	1530.890
64.000	9773.000	1530.890
80.000	9781.000	1531.020
65.000	9790.000	1531.020
63.000	9796.000	1531.020
65.000	9805.000	1530.890
63.000	9812.000	1531.020
65.000	9822.000	1530.890
64.000	9829.000	1530.890
63.000	9835.000	1531.020
64.000	9841.000	1530.890
64.000	9847.000	1531.020
64.000	9856.000	1531.020
64.000	9862.000	1531.020
80.000	9869.000	1530.890
64.000	9871.000	1531.020
64.000	9877.000	1531.020
63.000	9884.000	1531.020
66.000	9887.000	1531.020
63.000	9893.000	1531.020
64.000	9901.000	1531.020
64.000	9901.000	1531.020
64.000	9909.000	1531.020
63.000	9913.000	1531.020
65.000	9915.000	1531.020
64.000	9923.000	1531.140
80.000	9936.000	1531.020
64.000	9939.000	1531.140
64.000	9945.000	1531.140
63.000	9951.000	1531.020
65.000	9955.000	1531.020
63.000	9957.000	1531.020
65.000	9964.000	1531.140
63.000	9969.000	1531.140
65.000	9974.000	1531.020
63.000	9977.000	1531.020
64.000	9981.000	1531.020
65.000	9983.000	1531.140
79.000	9988.000	1531.140
64.000	9991.000	1531.140
64.000	9995.000	1531.140
64.000	9997.000	1531.140
64.000	10003.000	1531.140
64.000	10008.000	1531.140
64.000	10012.000	1531.140
63.000	10013.000	1531.140
65.000	10021.000	1531.270
64.000	10019.000	1531.140
63.000	10026.000	1531.140
65.000	10028.000	1531.140
80.000	10031.000	1531.140
64.000	10036.000	1531.140
64.000	10037.000	1531.140
64.000	10039.000	1531.140
63.000	10044.000	1531.140
64.000	10042.000	1531.140
65.000	10047.000	1531.140
63.000	10044.000	1531.140
65.000	10053.000	1531.140
63.000	10055.000	1531.140
65.000	10054.000	1531.140
63.000	10057.000	1531.140
80.000	10057.000	1531.140
65.000	10058.000	1531.270
64.000	10058.000	1531.140
63.000	10061.000	1531.140
64.000	10066.000	1531.140
64.000	10065.000	1531.140
64.000	10069.000	1531.140
64.000	10067.000	1531.270
64.000	10074.000	1531.140
64.000	10070.000	1531.140
64.000	10071.000	1531.140
64.000	10072.000	1531.270
80.000	10071.000	1531.270
64.000	10078.000	1531.140
63.000	10079.000	1531.270
65.000	10078.000	1531.020
64.000	10082.000	1531.140
64.000	10080.000	1531.140
63.000	10083.000	1531.270
65.000	10083.000	1531.270
64.000	10084.000	1531.140
64.000	10084.000	1531.270
63.000	10087.000	1531.270
64.000	10090.000	1531.140
80.000	10087.000	1531.270
65.000	10089.000	1531.270
63.000	10092.000	1531.140
65.000	10095.000	1531.270
63.000	10106.000	1531.270
64.000	10123.000	1531.270
64.000	10135.000	1531.140
64.000	10150.000	1531.270
64.000	10164.000	1531.270
64.000	10179.000	1531.270
65.000	10197.000	1531.270
63.000	10208.000	1531.140
80.000	10226.000	1531.270
64.000	10247.000	1531.270
64.000	10262.000	1531.270
64.000	10280.000	1531.270
64.000	10297.000	1531.270
64.000	10312.000	1531.270
63.000	10333.000	1531.270
65.000	10352.000	1531.270
64.000	10370.000	1531.270
64.000	10397.000	1531.270
64.000	10420.000	1531.270
64.000	10439.000	1531.270
80.000	10466.000	1531.270
64.000	10486.000	1531.270
64.000	10510.000	1531.400
64.000	10535.000	1531.270
63.000	10561.000	1531.270
64.000	10584.000	1531.270
64.000	10613.000	1531.400
65.000	10638.000	1531.270
63.000	10667.000	1531.400
64.000	10695.000	1531.400
65.000	10726.000	1531.270
63.000	10751.000	1531.270
80.000	10789.000	1531.270
65.000	10814.000	1531.270
63.000	10847.000	1531.270
64.000	10883.000	1531.270
64.000	10924.000	1531.400
64.000	10958.000	1531.270
64.000	10997.000	1531.400
64.000	11033.000	1531.270
64.000	11077.000	1531.270
64.000	11123.000	1531.400
64.000	11167.000	1531.270
64.000	11210.000	1531.400
80.000	11256.000	1531.270
64.000	11299.000	1531.270
64.000	11342.000	1531.400
64.000	11390.000	1531.530
63.000	11434.000	1531.780
65.000	11480.000	1532.300
63.000	11527.000	1532.550
64.000	11580.000	1533.190
64.000	11643.000	1533.700
65.000	11710.000	1534.470
64.000	11779.000	1535.230
64.000	11857.000	1536.260
80.000	11950.000	1537.280
63.000	12046.000	1538.560
65.000	12152.000	1539.840
63.000	12251.000	1541.240
64.000	12340.000	1542.780
64.000	12413.000	1544.440
65.000	12434.000	1546.100
63.000	12414.000	1547.890
64.000	12411.000	1549.930
65.000	12415.000	1552.110
63.000	12434.000	1554.410
64.000	12478.000	1556.840
80.000	12554.000	1559.520
64.000	12661.000	1562.200
64.000	12792.000	1564.890
64.000	12915.000	1567.570
65.000	13056.000	1570.510
63.000	13175.000	1573.200
64.000	13332.000	1575.880
64.000	13546.000	1578.440
64.000	13954.000	1580.860
64.000	14468.000	1583.290
64.000	14783.000	1585.590
64.000	15103.000	1587.770
79.000	15340.000	1589.680
64.000	15610.000	1591.470
65.000	15837.000	1592.880
64.000	15890.000	1594.280
63.000	15915.000	1594.670
65.000	15930.000	1592.620
63.000	15991.000	1590.070
64.000	16049.000	1586.870
64.000	16070.000	1583.550
64.000	16023.000	1579.970
65.000	15958.000	1576.010
64.000	15872.000	1571.920
79.000	15754.000	1567.950
64.000	15620.000	1564.250
64.000	15400.000	1560.290
64.000	15076.000	1556.960
65.000	14609.000	1553.770
63.000	13963.000	1550.830
64.000	13052.000	1548.140
64.000	12035.000	1545.970
64.000	11345.000	1543.800
64.000	10867.000	1542.140
64.000	10525.000	1540.860
64.000	10275.000	1539.320
80.000	10073.000	1538.050
64.000	9897.000	1536.900
64.000	9794.000	1535.360
64.000	9777.000	1534.470
64.000	9783.000	1533.830
63.000	9798.000	1533.190
65.000	9823.000	1532.550
64.000	9841.000	1531.910
64.000	9873.000	1531.530
63.000	9901.000	1531.020
65.000	9931.000	1530.760
64.000	9958.000	1530.510
64.000	9975.000	1530.510
79.000	9994.000	1530.250
64.000	10007.000	1530.120
64.000	10018.000	1530.120
64.000	10025.000	1530.120
64.000	10017.000	1530.250
64.000	10002.000	1530.380
65.000	9997.000	1530.380
63.000	9990.000	1530.380
65.000	9979.000	1530.380
64.000	9975.000	1530.510
63.000	9971.000	1530.510
64.000	9976.000	1530.630
80.000	9982.000	1530.510
64.000	9985.000	1530.630
64.000	9987.000	1530.630
64.000	9975.000	1530.510
64.000	9966.000	1530.630
63.000	9957.000	1530.510
65.000	9940.000	1530.630
64.000	9927.000	1530.630
63.000	9915.000	1530.630
65.000	9899.000	1530.630
64.000	9891.000	1530.760
64.000	9878.000	1530.760
79.000	9860.000	1530.890
65.000	9851.000	1530.760
64.000	9833.000	1530.760
64.000	9824.000	1530.890
63.000	9811.000	1530.760
65.000	9799.000	1530.760
64.000	9791.000	1530.760
64.000	9780.000	1530.890
63.000	9771.000	1530.890
65.000	9771.000	1530.890
64.000	9766.000	1530.890
64.000	9763.000	1530.890
79.000	9761.000	1530.760
64.000	9760.000	1530.890
64.000	9753.000	1531.020
64.000	9753.000	1531.020
64.000	9750.000	1530.890
64.000	9740.000	1530.890
64.000	9737.000	1531.140
64.000	9727.000	1531.020
64.000	9725.000	1530.890
64.000	9720.000	1531.020
64.000	9719.000	1531.020
64.000	9710.000	1530.890
80.000	9707.000	1531.020
64.000	9702.000	1531.020
63.000	9700.000	1531.020
65.000	9695.000	1531.020
64.000	9685.000	1531.140
64.000	9691.000	1531.020
64.000	9705.000	1531.020
63.000	9711.000	1531.020
64.000	9720.000	1531.020
65.000	9727.000	1531.020
64.000	9737.000	1530.890
63.000	9741.000	1531.020
80.000	9752.000	1531.020
64.000	9765.000	1531.020
64.000	9766.000	1531.020
64.000	9779.000	1531.140
64.000	9787.000	1531.020
65.000	9792.000	1531.140
64.000	9801.000	1531.140
63.000	9808.000	1531.020
64.000	9814.000	1531.020
64.000	9821.000	1531.140
64.000	9836.000	1531.020
64.000	9841.000	1531.140
80.000	9847.000	1531.020
64.000	9854.000	1531.140
64.000	9861.000	1531.020
64.000	9865.000	1531.140
64.000	9874.000	1531.140
64.000	9880.000	1531.140
64.000	9885.000	1531.140
63.000	9891.000	1531.020
65.000	9893.000	1531.140
64.000	9897.000	1531.140
63.000	9901.000	1531.140
64.000	9909.000	1531.140
80.000	9910.000	1531.140
64.000	9916.000	1531.140
65.000	9922.000	1531.140
63.000	9922.000	1531.140
65.000	9930.000	1531.270
63.000	9935.000	1531.020
64.000	9933.000	1531.140
64.000	9945.000	1531.140
64.000	9956.000	1531.140
66.000	9961.000	1531.140
62.000	9966.000	1531.270
64.000	9968.000	1531.270
80.000	9974.000	1531.140
64.000	9977.000	1531.140
64.000	9979.000	1531.270
64.000	9983.000	1531.140
64.000	9990.000	1531.140
64.000	9995.000	1531.270
64.000	9994.000	1531.270
64.000	10002.000	1531.140
64.000	10005.000	1531.140
65.000	10008.000	1531.270
63.000	10008.000	1531.270
64.000	10010.000	1531.270
80.000	10025.000	1531.270
64.000	10024.000	1531.270
63.000	10028.000	1531.140
65.000	10028.000	1531.270
63.000	10033.000	1531.270
65.000	10036.000	1531.270
64.000	10038.000	1531.270
64.000	10042.000	1531.140
63.000	10043.000	1531.140
64.000	10049.000	1531.270
65.000	10054.000	1531.140
64.000	10054.000	1531.140
79.000	10054.000	1531.270
65.000	10057.000	1531.140
64.000	10059.000	1531.270
63.000	10063.000	1531.270
64.000	10064.000	1531.270
64.000	10064.000	1531.270
64.000	10070.000	1531.270
64.000	10064.000	1531.270
64.000	10072.000	1531.270
64.000	10069.000	1531.270
64.000	10076.000	1531.270
64.000	10077.000	1531.270
80.000	10077.000	1531.270
64.000	10078.000	1531.270
64.000	10078.000	1531.270
64.000	10082.000	1531.270
63.000	10086.000	1531.270
65.000	10079.000	1531.270
64.000	10088.000	1531.140
64.000	10085.000	1531.270
64.000	10087.000	1531.270
64.000	10089.000	1531.270
64.000	10089.000	1531.400
64.000	10088.000	1531.270
80.000	10090.000	1531.270
64.000	10093.000	1531.400
64.000	10090.000	1531.270
64.000	10095.000	1531.270
63.000	10097.000	1531.270
64.000	10108.000	1531.270
64.000	10120.000	1531.270
64.000	10133.000	1531.400
64.000	10148.000	1531.270
65.000	10158.000	1531.400
63.000	10176.000	1531.400
64.000	10190.000	1531.400
80.000	10205.000	1531.400
64.000	10226.000	1531.270
64.000	10242.000	1531.400
64.000	10258.000	1531.400
64.000	10274.000	1531.400
64.000	10293.000	1531.270
64.000	10313.000	1531.400
64.000	10329.000	1531.400
64.000	10354.000	1531.270
64.000	10370.000	1531.270
64.000	10393.000	1531.270
64.000	10413.000	1531.400
64.000	10434.000	1531.400
80.000	10459.000	1531.270
63.000	10485.000	1531.400
64.000	10508.000	1531.400
65.000	10530.000	1531.270
64.000	10553.000	1531.530
64.000	10582.000	1531.400
64.000	10608.000	1531.400
63.000	10630.000	1531.400
65.000	10663.000	1531.400
63.000	10689.000	1531.400
65.000	10720.000	1531.270
63.000	10745.000	1531.400
80.000	10779.000	1531.270
64.000	10809.000	1531.270
65.000	10848.000	1531.400
63.000	10886.000	1531.400
64.000	10918.000	1531.400
64.000	10954.000	1531.530
64.000	10996.000	1531.400
64.000	11037.000	1531.400
64.000	11076.000	1531.400
64.000	11117.000	1531.270
64.000	11161.000	1531.400
64.000	11201.000	1531.400
80.000	11244.000	1531.530
64.000	11291.000	1531.270
64.000	11339.000	1531.400
64.000	11382.000	1531.530
63.000	11423.000	1531.780
64.000	11473.000	1532.040
64.000	11520.000	1532.420
65.000	11570.000	1532.930
64.000	11630.000	1533.570
64.000	11688.000	1534.210
64.000	11760.000	1534.980
63.000	11839.000	1535.870
81.000	11921.000	1536.770
64.000	12017.000	1538.050
64.000	12124.000	1539.320
63.000	12230.000	1540.600
64.000	12323.000	1542.140
64.000	12408.000	1543.800
64.000	12452.000	1545.460
64.000	12436.000	1547.250
65.000	12426.000	1549.290
63.000	12428.000	1551.340
64.000	12443.000	1553.640
64.000	12471.000	1555.940
81.000	12538.000	1558.500
64.000	12638.000	1561.180
63.000	12765.000	1563.990
64.000	12896.000	1566.680
64.000	13016.000	1569.490
64.000	13192.000	1572.300
64.000	13326.000	1575.110
64.000	13494.000	1577.410
63.000	13726.000	1580.220
65.000	14400.000	1582.530
64.000	14673.000	1584.830
64.000	15008.000	1587.000
79.000	15301.000	1589.040
65.000	15515.000	1590.830
64.000	15766.000	1592.490
64.000	15887.000	1593.900
63.000	15906.000	1594.920
64.000	15938.000	1593.390
65.000	15977.000	1591.090
64.000	16034.000	1588.020
64.000	16083.000	1584.700
64.000	16044.000	1581.250
63.000	15986.000	1577.410
65.000	15893.000	1573.320
79.000	15783.000	1569.360
64.000	15671.000	1565.400
65.000	15478.000	1561.690
63.000	15180.000	1558.240
64.000	14774.000	1554.920
64.000	14213.000	1551.720
64.000	13361.000	1549.040
64.000	12338.000	1546.740
65.000	11544.000	1544.440
63.000	11011.000	1542.780
64.000	10628.000	1541.240
64.000	10347.000	1539.960
80.000	10131.000	1538.690
64.000	9961.000	1537.410
64.000	9819.000	1535.750
64.000	9780.000	1534.850
64.000	9782.000	1534.210
64.000	9794.000	1533.450
64.000	9810.000	1532.930
64.000	9840.000	1532.040
64.000	9864.000	1531.660
64.000	9887.000	1531.140
64.000	9917.000	1530.760
63.000	9948.000	1530.630
80.000	9968.000	1530.510
65.000	9988.000	1530.380
63.000	9999.000	1530.120
65.000	10009.000	1530.120
64.000	10022.000	1530.120
63.000	10028.000	1530.250
64.000	10003.000	1530.250
64.000	9995.000	1530.380
64.000	9986.000	1530.380
64.000	9975.000	1530.510
64.000	9969.000	1530.510
64.000	9969.000	1530.510
80.000	9978.000	1530.510
64.000	9983.000	1530.630
64.000	9989.000	1530.510
64.000	9987.000	1530.630
64.000	9985.000	1530.630
63.000	9971.000	1530.760
65.000	9960.000	1530.760
64.000	9943.000	1530.630
64.000	9932.000	1530.760
64.000	9921.000	1530.760
64.000	9909.000	1530.630
64.000	9893.000	1530.760
80.000	9879.000	1530.630
64.000	9865.000	1530.890
63.000	9849.000	1530.890
64.000	9841.000	1530.760
64.000	9825.000	1530.890
65.000	9818.000	1530.890
64.000	9808.000	1530.760
64.000	9794.000	1530.890
63.000	9786.000	1530.890
64.000	9787.000	1530.760
64.000	9786.000	1530.890
65.000	9779.000	1530.890
79.000	9776.000	1530.890
64.000	9773.000	1530.890
64.000	9772.000	1531.020
64.000	9766.000	1531.020
64.000	9757.000	1530.890
64.000	9757.000	1530.890
64.000	9751.000	1531.020
64.000	9744.000	1530.890
64.000	9739.000	1531.020
64.000	9737.000	1531.020
64.000	9732.000	1531.020
64.000	9722.000	1531.020
80.000	9722.000	1531.020
64.000	9722.000	1531.020
63.000	9710.000	1531.140
65.000	9708.000	1530.890
64.000	9701.000	1530.890
64.000	9702.000	1531.020
64.000	9690.000	1531.020
63.000	9708.000	1531.020
64.000	9714.000	1531.020
65.000	9725.000	1531.140
64.000	9733.000	1531.140
64.000	9739.000	1531.020
79.000	9747.000	1531.020
65.000	9756.000	1531.140
64.000	9767.000	1531.140
63.000	9774.000	1531.140
64.000	9782.000	1531.020
65.000	9789.000	1531.020
63.000	9802.000	1531.020
64.000	9808.000	1531.140
64.000	9813.000	1531.020
64.000	9821.000	1531.020
64.000	9825.000	1531.140
64.000	9836.000	1531.140
80.000	9845.000	1531.140
64.000	9853.000	1531.020
64.000	9862.000	1531.020
64.000	9866.000	1531.140
64.000	9869.000	1531.140
64.000	9877.000	1531.140
64.000	9886.000	1531.140
63.000	9890.000	1531.140
65.000	9894.000	1531.140
64.000	9898.000	1531.140
64.000	9903.000	1531.140
64.000	9909.000	1531.140
80.000	9914.000	1531.140
64.000	9916.000	1531.140
64.000	9922.000	1531.140
63.000	9923.000	1531.140
64.000	9933.000	1531.140
64.000	9933.000	1531.270
64.000	9940.000	1531.270
64.000	9948.000	1531.140
64.000	9958.000	1531.140
64.000	9967.000	1531.270
64.000	9968.000	1531.140
64.000	9978.000	1531.270
65.000	9974.000	1531.270
79.000	9988.000	1531.270
64.000	9985.000	1531.270
64.000	9989.000	1531.270
65.000	9992.000	1531.270
63.000	9997.000	1531.270
64.000	9998.000	1531.270
64.000	10009.000	1531.270
64.000	10005.000	1531.270
64.000	10016.000	1531.140
64.000	10017.000	1531.270
64.000	10019.000	1531.270
63.000	10022.000	1531.270
80.000	10031.000	1531.270
64.000	10032.000	1531.270
64.000	10036.000	1531.270
65.000	10045.000	1531.270
63.000	10043.000	1531.270
64.000	10049.000	1531.270
65.000	10048.000	1531.270
63.000	10051.000	1531.140
64.000	10053.000	1531.270
64.000	10053.000	1531.270
64.000	10057.000	1531.400
64.000	10058.000	1531.270
80.000	10061.000	1531.400
65.000	10066.000	1531.270
63.000	10067.000	1531.400
64.000	10069.000	1531.270
64.000	10068.000	1531.270
64.000	10066.000	1531.270
64.000	10069.000	1531.270
64.000	10069.000	1531.270
64.000	10072.000	1531.270
64.000	10073.000	1531.270
64.000	10074.000	1531.140
64.000	10080.000	1531.270
80.000	10078.000	1531.270
64.000	10079.000	1531.400
64.000	10082.000	1531.270
64.000	10083.000	1531.270
64.000	10079.000	1531.270
63.000	10083.000	1531.270
65.000	10085.000	1531.270
64.000	10085.000	1531.400
63.000	10087.000	1531.270
65.000	10088.000	1531.400
64.000	10087.000	1531.270
63.000	10094.000	1531.270
81.000	10091.000	1531.400
64.000	10093.000	1531.270
63.000	10092.000	1531.400
64.000	10092.000	1531.270
65.000	10092.000	1531.400
64.000	10106.000	1531.400
63.000	10113.000	1531.270
64.000	10131.000	1531.400
64.000	10147.000	1531.270
64.000	10155.000	1531.270
64.000	10173.000	1531.400
64.000	10190.000	1531.270
80.000	10207.000	1531.270
64.000	10225.000	1531.400
64.000	10240.000	1531.400
64.000	10258.000	1531.400
64.000	10270.000	1531.400
64.000	10291.000	1531.400
64.000	10307.000	1531.400
64.000	10327.000	1531.400
63.000	10349.000	1531.400
65.000	10365.000	1531.530
64.000	10391.000	1531.400
64.000	10413.000	1531.400
80.000	10431.000	1531.400
64.000	10456.000	1531.400
64.000	10480.000	1531.400
63.000	10497.000	1531.270
65.000	10527.000	1531.400
64.000	10551.000	1531.400
63.000	10574.000	1531.400
65.000	10604.000	1531.400
63.000	10629.000	1531.400
64.000	10655.000	1531.400
64.000	10682.000	1531.400
64.000	10712.000	1531.400
80.000	10745.000	1531.400
64.000	10773.000	1531.530
64.000	10807.000	1531.400
64.000	10838.000	1531.400
64.000	10878.000	1531.400
64.000	10906.000	1531.400
64.000	10945.000	1531.400
64.000	10985.000	1531.530
64.000	11023.000	1531.400
64.000	11062.000	1531.270
64.000	11109.000	1531.530
64.000	11148.000	1531.530
80.000	11194.000	1531.400
63.000	11234.000	1531.400
65.000	11280.000	1531.530
64.000	11327.000	1531.400
64.000	11372.000	1531.660
64.000	11410.000	1531.660
64.000	11464.000	1531.910
63.000	11507.000	1532.550
65.000	11556.000	1532.930
64.000	11621.000	1533.450
64.000	11683.000	1534.340
63.000	11748.000	1534.980
80.000	11822.000	1535.870
64.000	11910.000	1536.770
64.000	12002.000	1537.920
65.000	12108.000	1539.070
64.000	12209.000	1540.600
63.000	12306.000	1542.010
65.000	12392.000	1543.540
63.000	12448.000	1545.080
65.000	12443.000	1546.740
63.000	12423.000	1548.660
64.000	12425.000	1550.700
64.000	12441.000	1553.000
80.000	12460.000	1555.430
64.000	12523.000	1557.990
64.000	12614.000	1560.540
64.000	12742.000	1563.350
63.000	12877.000	1566.170
65.000	12996.000	1568.980
64.000	13162.000	1571.660
64.000	13321.000	1574.350
64.000	13483.000	1577.030
64.000	13671.000	1579.590
64.000	14353.000	1582.140
63.000	14589.000	1584.440
80.000	14950.000	1586.620
64.000	15243.000	1588.660
64.000	15451.000	1590.580
65.000	15703.000	1592.240
63.000	15829.000	1593.770
65.000	15875.000	1594.920
64.000	15891.000	1594.030
64.000	15929.000	1591.730
63.000	15993.000	1588.660
64.000	16068.000	1585.470
64.000	16055.000	1581.890
65.000	15998.000	1578.310
80.000	15904.000	1574.220
63.000	15799.000	1570.130
64.000	15677.000	1566.170
64.000	15504.000	1562.460
64.000	15242.000	1558.880
65.000	14862.000	1555.430
63.000	14341.000	1552.360
64.000	13553.000	1549.550
64.000	12531.000	1547.120
64.000	11698.000	1545.080
64.000	11123.000	1543.160
64.000	10714.000	1541.630
79.000	10408.000	1540.220
65.000	10180.000	1538.940
64.000	10005.000	1537.660
64.000	9841.000	1536.390
64.000	9779.000	1535.110
64.000	9779.000	1534.340
63.000	9781.000	1533.830
64.000	9795.000	1533.060
65.000	9820.000	1532.420
64.000	9851.000	1531.780
63.000	9881.000	1531.400
65.000	9907.000	1531.020
79.000	9937.000	1530.890
65.000	9956.000	1530.630
63.000	9976.000	1530.510
64.000	9990.000	1530.380
64.000	10006.000	1530.250
64.000	10013.000	1530.120
64.000	10021.000	1530.250
65.000	9995.000	1530.380
64.000	9991.000	1530.380
63.000	9979.000	1530.510
64.000	9972.000	1530.510
64.000	9959.000	1530.510
79.000	9954.000	1530.630
65.000	9951.000	1530.630
64.000	9961.000	1530.760
64.000	9963.000	1530.760
64.000	9969.000	1530.630
64.000	9975.000	1530.760
64.000	9965.000	1530.630
64.000	9953.000	1530.760
64.000	9940.000	1530.890
63.000	9926.000	1530.890
64.000	9915.000	1530.760
64.000	9902.000	1530.760
65.000	9890.000	1530.890
79.000	9875.000	1530.890
64.000	9863.000	1530.890
64.000	9851.000	1530.890
64.000	9834.000	1530.890
64.000	9830.000	1531.020
65.000	9813.000	1530.890
63.000	9807.000	1531.020
64.000	9794.000	1531.020
65.000	9781.000	1531.020
63.000	9773.000	1531.020
65.000	9765.000	1530.890
63.000	9771.000	1531.140
80.000	9768.000	1531.020
65.000	9762.000	1531.020
63.000	9758.000	1531.140
64.000	9765.000	1531.020
64.000	9758.000	1531.020
64.000	9756.000	1531.140
64.000	9741.000	1531.140
63.000	9744.000	1531.140
65.000	9737.000	1531.140
64.000	9725.000	1531.140
64.000	9727.000	1531.140
64.000	9716.000	1531.020
80.000	9717.000	1531.140
64.000	9713.000	1531.140
63.000	9704.000	1531.140
65.000	9706.000	1531.140
63.000	9699.000	1531.140
64.000	9701.000	1531.140
64.000	9689.000	1531.270
64.000	9694.000	1531.020
64.000	9712.000	1531.140
64.000	9716.000	1531.140
64.000	9722.000	1531.140
65.000	9730.000	1531.140
80.000	9739.000	1531.140
63.000	9746.000	1531.140
64.000	9753.000	1531.270
64.000	9766.000	1531.270
64.000	9772.000	1531.140
64.000	9781.000	1531.270
64.000	9785.000	1531.270
64.000	9794.000	1531.270
64.000	9805.000	1531.270
64.000	9814.000	1531.140
64.000	9816.000	1531.270
64.000	9824.000	1531.140
80.000	9838.000	1531.270
63.000	9843.000	1531.140
65.000	9847.000	1531.270
64.000	9861.000	1531.270
64.000	9867.000	1531.270
63.000	9870.000	1531.270
64.000	9878.000	1531.270
65.000	9884.000	1531.270
63.000	9895.000	1531.270
64.000	9894.000	1531.270
64.000	9899.000	1531.270
65.000	9904.000	1531.140
80.000	9910.000	1531.140
64.000	9911.000	1531.400
63.000	9921.000	1531.140
64.000	9921.000	1531.270
64.000	9924.000	1531.400
64.000	9933.000	1531.270
64.000	9931.000	1531.400
64.000	9942.000	1531.270
64.000	9941.000	1531.140
64.000	9959.000	1531.270
64.000	9967.000	1531.270
64.000	9970.000	1531.400
80.000	9979.000	1531.400
64.000	9978.000	1531.270
64.000	9982.000	1531.270
64.000	9982.000	1531.400
64.000	9987.000	1531.400
64.000	9990.000	1531.400
64.000	10001.000	1531.400
63.000	10006.000	1531.270
65.000	10009.000	1531.270
63.000	10009.000	1531.270
65.000	10012.000	1531.400
64.000	10020.000	1531.270
80.000	10028.000	1531.270
64.000	10025.000	1531.270
63.000	10029.000	1531.400
64.000	10033.000	1531.270
64.000	10040.000	1531.270
65.000	10045.000	1531.270
64.000	10047.000	1531.270
63.000	10044.000	1531.400
64.000	10049.000	1531.400
64.000	10051.000	1531.270
64.000	10053.000	1531.400
65.000	10058.000	1531.400
80.000	10059.000	1531.400
62.000	10063.000	1531.270
64.000	10062.000	1531.400
65.000	10066.000	1531.530
64.000	10067.000	1531.400
64.000	10069.000	1531.400
64.000	10073.000	1531.400
64.000	10072.000	1531.530
64.000	10073.000	1531.400
63.000	10074.000	1531.270
64.000	10076.000	1531.530
64.000	10080.000	1531.400
81.000	10078.000	1531.400
64.000	10079.000	1531.400
63.000	10081.000	1531.530
64.000	10084.000	1531.400
66.000	10083.000	1531.530
62.000	10085.000	1531.400
64.000	10088.000	1531.400
64.000	10086.000	1531.530
64.000	10090.000	1531.400
64.000	10092.000	1531.530
65.000	10092.000	1531.530
63.000	10090.000	1531.400
80.000	10096.000	1531.530
65.000	10094.000	1531.400
63.000	10094.000	1531.400
64.000	10097.000	1531.400
64.000	10096.000	1531.530
63.000	10100.000	1531.400
65.000	10101.000	1531.400
64.000	10114.000	1531.400
64.000	10129.000	1531.400
64.000	10143.000	1531.400
64.000	10157.000	1531.400
64.000	10178.000	1531.400
80.000	10190.000	1531.400
64.000	10206.000	1531.530
64.000	10224.000	1531.400
64.000	10241.000	1531.400
64.000	10256.000	1531.400
64.000	10277.000	1531.400
63.000	10292.000	1531.400
64.000	10311.000	1531.530
64.000	10325.000	1531.400
65.000	10350.000	1531.530
64.000	10374.000	1531.530
64.000	10383.000	1531.530
79.000	10409.000	1531.400
65.000	10432.000	1531.400
63.000	10458.000	1531.660
64.000	10479.000	1531.400
64.000	10501.000	1531.530
64.000	10525.000	1531.400
65.000	10553.000	1531.400
63.000	10575.000	1531.530
64.000	10605.000	1531.660
64.000	10631.000	1531.400
64.000	10654.000	1531.530
64.000	10684.000	1531.400
80.000	10713.000	1531.530
64.000	10743.000	1531.530
64.000	10772.000	1531.530
64.000	10806.000	1531.530
64.000	10836.000	1531.530
63.000	10875.000	1531.530
64.000	10906.000	1531.400
64.000	10953.000	1531.530
65.000	10987.000	1531.530
64.000	11018.000	1531.530
64.000	11066.000	1531.530
63.000	11105.000	1531.400
81.000	11152.000	1531.530
63.000	11190.000	1531.530
65.000	11238.000	1531.530
64.000	11282.000	1531.530
64.000	11330.000	1531.530
63.000	11370.000	1531.660
64.000	11415.000	1531.780
64.000	11462.000	1532.040
65.000	11509.000	1532.420
63.000	11558.000	1532.930
65.000	11624.000	1533.570
64.000	11679.000	1534.080
79.000	11744.000	1534.850
64.000	11823.000	1535.620
64.000	11898.000	1536.640
65.000	11988.000	1537.540
63.000	12094.000	1538.940
64.000	12204.000	1540.350
64.000	12297.000	1541.750
64.000	12384.000	1543.290
64.000	12456.000	1545.080
64.000	12457.000	1546.740
64.000	12438.000	1548.530
64.000	12435.000	1550.700
80.000	12448.000	1552.870
64.000	12472.000	1555.300
64.000	12524.000	1557.860
64.000	12616.000	1560.410
64.000	12734.000	1563.100
63.000	12868.000	1565.910
65.000	13002.000	1568.720
63.000	13146.000	1571.410
65.000	13327.000	1574.220
63.000	13475.000	1576.770
65.000	13644.000	1579.460
64.000	14169.000	1581.890
80.000	14514.000	1584.310
64.000	14892.000	1586.490
63.000	15200.000	1588.660
65.000	15422.000	1590.320
63.000	15665.000	1592.110
64.000	15795.000	1593.650
64.000	15877.000	1594.920
64.000	15890.000	1594.540
64.000	15904.000	1592.370
64.000	15974.000	1589.430
64.000	16044.000	1586.360
65.000	16065.000	1582.910
63.000	16007.000	1579.200
80.000	15919.000	1575.110
64.000	15825.000	1571.280
64.000	15695.000	1567.190
64.000	15554.000	1563.230
63.000	15303.000	1559.520
65.000	14956.000	1556.200
64.000	14472.000	1553.000
64.000	13749.000	1550.320
64.000	12739.000	1547.630
64.000	11849.000	1545.460
64.000	11233.000	1543.540
64.000	10792.000	1541.880
79.000	10462.000	1540.600
65.000	10224.000	1539.070
63.000	10041.000	1537.920
65.000	9852.000	1536.770
64.000	9775.000	1535.360
63.000	9770.000	1534.720
65.000	9776.000	1533.960
63.000	9789.000	1533.320
65.000	9820.000	1532.680
64.000	9846.000	1532.170
64.000	9868.000	1531.660
63.000	9899.000	1531.270
80.000	9925.000	1531.020
64.000	9953.000	1530.760
64.000	9972.000	1530.630
64.000	9986.000	1530.510
64.000	9999.000	1530.250
64.000	10003.000	1530.250
64.000	10016.000	1530.380
64.000	9991.000	1530.380
64.000	9985.000	1530.510
64.000	9979.000	1530.510
64.000	9966.000	1530.510
64.000	9959.000	1530.510
79.000	9948.000	1530.630
65.000	9944.000	1530.630
64.000	9943.000	1530.630
63.000	9948.000	1530.630
64.000	9949.000	1530.630
64.000	9958.000	1530.630
64.000	9957.000	1530.890
64.000	9943.000	1530.760
65.000	9935.000	1530.890
64.000	9927.000	1530.890
64.000	9910.000	1530.890
64.000	9898.000	1531.020
79.000	9887.000	1530.890
64.000	9873.000	1531.020
64.000	9863.000	1531.020
64.000	9849.000	1531.020
64.000	9834.000	1531.020
64.000	9823.000	1531.020
64.000	9807.000	1531.020
64.000	9802.000	1531.020
64.000	9793.000	1531.020
64.000	9780.000	1531.020
64.000	9771.000	1531.020
64.000	9762.000	1531.020
80.000	9757.000	1531.020
64.000	9757.000	1531.020
64.000	9760.000	1531.020
63.000	9755.000	1531.140
65.000	9750.000	1531.020
64.000	9745.000	1531.020
64.000	9750.000	1530.890
64.000	9742.000	1531.140
64.000	9738.000	1531.020
64.000	9729.000	1531.020
64.000	9720.000	1531.020
64.000	9717.000	1531.140
79.000	9711.000	1531.020
65.000	9707.000	1531.140
64.000	9698.000	1531.140
63.000	9694.000	1531.140
65.000	9695.000	1531.270
63.000	9692.000	1531.140
64.000	9683.000	1531.140
64.000	9683.000	1531.270
64.000	9684.000	1531.140
65.000	9697.000	1531.140
64.000	9706.000	1531.270
64.000	9711.000	1531.140
80.000	9724.000	1531.140
63.000	9731.000	1531.140
64.000	9736.000	1531.270
64.000	9743.000	1531.270
64.000	9751.000	1531.270
64.000	9757.000	1531.140
64.000	9761.000	1531.270
64.000	9773.000	1531.270
64.000	9779.000	1531.270
64.000	9788.000	1531.270
64.000	9792.000	1531.270
63.000	9803.000	1531.270
81.000	9811.000	1531.270
63.000	9820.000	1531.140
64.000	9829.000	1531.270
64.000	9837.000	1531.270
65.000	9844.000	1531.270
64.000	9850.000	1531.270
63.000	9861.000	1531.270
65.000	9864.000	1531.270
63.000	9877.000	1531.400
65.000	9879.000	1531.270
63.000	9886.000	1531.270
64.000	9890.000	1531.270
80.000	9898.000	1531.140
65.000	9899.000	1531.270
63.000	9905.000	1531.270
65.000	9912.000	1531.270
63.000	9916.000	1531.270
65.000	9925.000	1531.270
63.000	9918.000	1531.270
64.000	9926.000	1531.270
64.000	9931.000	1531.270
64.000	9933.000	1531.270
64.000	9943.000	1531.270
64.000	9945.000	1531.400
80.000	9954.000	1531.400
63.000	9967.000	1531.270
65.000	9967.000	1531.400
64.000	9975.000	1531.400
64.000	9983.000	1531.400
63.000	9987.000	1531.270
64.000	9990.000	1531.270
64.000	9992.000	1531.400
65.000	9996.000	1531.400
63.000	10000.000	1531.400
64.000	10007.000	1531.400
64.000	10007.000	1531.400
80.000	10010.000	1531.400
65.000	10018.000	1531.400
64.000	10024.000	1531.400
63.000	10025.000	1531.400
65.000	10032.000	1531.400
63.000	10035.000	1531.400
64.000	10039.000	1531.400
64.000	10040.000	1531.270
65.000	10043.000	1531.400
64.000	10045.000	1531.400
63.000	10050.000	1531.400
64.000	10051.000	1531.400
80.000	10060.000	1531.400
64.000	10058.000	1531.400
64.000	10060.000	1531.400
64.000	10066.000	1531.400
64.000	10066.000	1531.400
64.000	10065.000	1531.400
64.000	10068.000	1531.400
64.000	10071.000	1531.530
63.000	10073.000	1531.400
65.000	10073.000	1531.400
64.000	10074.000	1531.530
64.000	10075.000	1531.530
80.000	10073.000	1531.400
64.000	10081.000	1531.400
64.000	10077.000	1531.400
63.000	10080.000	1531.530
65.000	10082.000	1531.400
64.000	10084.000	1531.530
63.000	10088.000	1531.400
65.000	10086.000	1531.400
63.000	10086.000	1531.400
65.000	10087.000	1531.530
64.000	10090.000	1531.400
63.000	10090.000	1531.400
64.000	10092.000	1531.400
80.000	10097.000	1531.530
64.000	10092.000	1531.400
64.000	10095.000	1531.400
64.000	10097.000	1531.530
64.000	10102.000	1531.530
64.000	10099.000	1531.530
64.000	10094.000	1531.400
65.000	10102.000	1531.400
63.000	10098.000	1531.530
64.000	10100.000	1531.530
64.000	10107.000	1531.530
65.000	10102.000	1531.530
78.000	10105.000	1531.530
65.000	10109.000	1531.400
64.000	10104.000	1531.400
64.000	10107.000	1531.530
64.000	10107.000	1531.530
64.000	10111.000	1531.530
64.000	10111.000	1531.530
64.000	10115.000	1531.530
63.000	10114.000	1531.530
66.000	10113.000	1531.530
63.000	10113.000	1531.400
64.000	10113.000	1531.530
79.000	10121.000	1531.530
64.000	10120.000	1531.530
65.000	10117.000	1531.660
64.000	10122.000	1531.530
63.000	10119.000	1531.400
64.000	10119.000	1531.530
64.000	10119.000	1531.530
