Loop Time (ms)	IR (16 bit)	Force (N)
270.000	11639.000	1540.480
55.000	11641.000	1540.480
63.000	11643.000	1540.480
64.000	11639.000	1540.480
64.000	11642.000	1540.480
64.000	11640.000	1540.480
64.000	11635.000	1540.480
80.000	11643.000	1540.600
64.000	11649.000	1540.600
63.000	11668.000	1540.480
65.000	11669.000	1540.600
63.000	11682.000	1540.600
65.000	11700.000	1540.480
64.000	11709.000	1540.480
64.000	11718.000	1540.600
63.000	11733.000	1540.600
64.000	11747.000	1540.480
64.000	11754.000	1540.480
65.000	11763.000	1540.600
79.000	11775.000	1540.480
64.000	11792.000	1540.600
64.000	11800.000	1540.600
64.000	11815.000	1540.600
65.000	11830.000	1540.480
63.000	11842.000	1540.600
64.000	11852.000	1540.600
64.000	11864.000	1540.480
63.000	11878.000	1540.600
65.000	11897.000	1540.730
64.000	11903.000	1540.480
64.000	11926.000	1540.600
80.000	11941.000	1540.600
63.000	11955.000	1540.600
65.000	11972.000	1540.600
64.000	11984.000	1540.600
63.000	12000.000	1540.600
65.000	12014.000	1540.600
64.000	12029.000	1540.600
64.000	12047.000	1540.600
64.000	12069.000	1540.600
63.000	12082.000	1540.600
65.000	12096.000	1540.600
63.000	12121.000	1540.600
80.000	12138.000	1540.480
64.000	12153.000	1540.600
64.000	12172.000	1540.600
64.000	12187.000	1540.600
64.000	12211.000	1540.480
65.000	12228.000	1540.600
63.000	12248.000	1540.600
64.000	12267.000	1540.600
64.000	12286.000	1540.480
64.000	12307.000	1540.600
64.000	12327.000	1540.480
63.000	12351.000	1540.480
81.000	12368.000	1540.480
64.000	12394.000	1540.600
64.000	12418.000	1540.600
64.000	12438.000	1540.600
64.000	12462.000	1540.600
63.000	12485.000	1540.480
65.000	12506.000	1540.600
63.000	12532.000	1540.600
65.000	12554.000	1540.350
64.000	12586.000	1540.600
64.000	12607.000	1540.600
63.000	12638.000	1540.480
80.000	12667.000	1540.600
65.000	12697.000	1540.600
63.000	12721.000	1540.600
65.000	12750.000	1540.600
64.000	12780.000	1540.730
63.000	12808.000	1540.600
64.000	12838.000	1540.480
64.000	12875.000	1540.480
64.000	12906.000	1540.600
64.000	12935.000	1540.480
64.000	12968.000	1540.600
64.000	13000.000	1540.600
80.000	13037.000	1540.600
64.000	13066.000	1540.730
64.000	13105.000	1540.600
64.000	13148.000	1540.730
63.000	13182.000	1540.860
64.000	13215.000	1540.860
64.000	13251.000	1540.860
64.000	13294.000	1541.110
65.000	13342.000	1541.240
64.000	13378.000	1541.370
64.000	13423.000	1541.500
63.000	13470.000	1541.630
81.000	13511.000	1541.750
64.000	13565.000	1542.010
63.000	13620.000	1542.260
64.000	13673.000	1542.520
64.000	13729.000	1542.780
64.000	13795.000	1543.030
64.000	13866.000	1543.290
64.000	13924.000	1543.540
64.000	13992.000	1543.930
64.000	14047.000	1544.310
64.000	14109.000	1544.690
64.000	14167.000	1545.200
80.000	14213.000	1545.720
64.000	14240.000	1546.100
64.000	14253.000	1546.610
64.000	14264.000	1546.990
63.000	14263.000	1547.630
65.000	14254.000	1548.140
64.000	14243.000	1548.780
64.000	14230.000	1549.290
63.000	14236.000	1549.810
65.000	14228.000	1550.440
64.000	14223.000	1551.080
64.000	14225.000	1551.850
80.000	14220.000	1552.620
63.000	14227.000	1553.130
65.000	14231.000	1553.900
64.000	14237.000	1554.660
63.000	14239.000	1555.430
64.000	14254.000	1556.320
65.000	14258.000	1557.090
63.000	14270.000	1557.990
65.000	14282.000	1558.620
63.000	14295.000	1559.650
64.000	14320.000	1560.540
64.000	14344.000	1561.560
80.000	14372.000	1562.590
64.000	14410.000	1563.480
64.000	14455.000	1564.500
64.000	14514.000	1565.530
63.000	14602.000	1566.680
64.000	14692.000	1567.700
65.000	14801.000	1568.850
63.000	14919.000	1570.130
65.000	15051.000	1571.280
63.000	15188.000	1572.560
65.000	15317.000	1573.960
63.000	15431.000	1575.240
81.000	15536.000	1576.650
64.000	15607.000	1577.920
63.000	15634.000	1579.330
64.000	15662.000	1580.740
64.000	15681.000	1582.270
64.000	15665.000	1583.800
64.000	15677.000	1585.210
65.000	15667.000	1586.490
63.000	15650.000	1588.020
64.000	15637.000	1585.850
64.000	15568.000	1587.130
65.000	15531.000	1588.530
79.000	15476.000	1590.070
64.000	15418.000	1591.600
64.000	15384.000	1593.130
63.000	15354.000	1594.410
65.000	15304.000	1595.820
63.000	15293.000	1597.350
65.000	15292.000	1598.630
64.000	15310.000	1599.780
64.000	15320.000	1601.060
63.000	15366.000	1604.000
65.000	15394.000	1605.790
64.000	15444.000	1606.810
80.000	15496.000	1607.700
64.000	15516.000	1608.470
64.000	15530.000	1609.240
63.000	15558.000	1610.010
64.000	15592.000	1610.770
64.000	15541.000	1609.490
64.000	15459.000	1608.090
64.000	15399.000	1606.680
65.000	15343.000	1605.280
63.000	15295.000	1603.870
64.000	15243.000	1602.080
64.000	15216.000	1600.420
80.000	15187.000	1598.630
64.000	15178.000	1596.580
64.000	15194.000	1594.540
64.000	15233.000	1592.490
64.000	15290.000	1590.190
64.000	15348.000	1585.340
64.000	15424.000	1582.530
63.000	15492.000	1579.590
65.000	15561.000	1576.900
63.000	15620.000	1573.960
64.000	15691.000	1570.890
64.000	15740.000	1568.080
80.000	15745.000	1565.270
65.000	15721.000	1562.200
64.000	15664.000	1559.260
64.000	15556.000	1556.450
63.000	15421.000	1553.380
65.000	15264.000	1550.440
63.000	15118.000	1547.760
64.000	14959.000	1544.950
64.000	14801.000	1542.390
64.000	14651.000	1540.090
64.000	14501.000	1537.790
64.000	14368.000	1535.750
80.000	14236.000	1533.960
64.000	14126.000	1532.420
63.000	14032.000	1531.140
65.000	13938.000	1529.870
64.000	13863.000	1528.970
64.000	13822.000	1528.210
64.000	13760.000	1527.440
63.000	13703.000	1527.050
65.000	13660.000	1526.930
64.000	13628.000	1526.540
64.000	13605.000	1526.420
63.000	13586.000	1526.420
80.000	13589.000	1526.540
64.000	13604.000	1526.800
64.000	13611.000	1526.930
64.000	13637.000	1527.050
65.000	13672.000	1527.440
63.000	13709.000	1527.570
65.000	13734.000	1527.950
63.000	13773.000	1528.080
64.000	13783.000	1528.460
64.000	13822.000	1528.720
64.000	13831.000	1529.100
64.000	13837.000	1529.360
80.000	13848.000	1529.610
64.000	13857.000	1529.990
64.000	13866.000	1530.250
64.000	13866.000	1530.630
64.000	13873.000	1530.890
63.000	13885.000	1531.140
64.000	13891.000	1531.530
65.000	13901.000	1531.780
63.000	13904.000	1532.170
65.000	13900.000	1532.420
64.000	13887.000	1532.810
63.000	13858.000	1533.060
80.000	13831.000	1533.450
64.000	13799.000	1533.700
64.000	13766.000	1533.830
64.000	13733.000	1534.210
65.000	13689.000	1534.600
64.000	13665.000	1534.850
63.000	13630.000	1534.980
64.000	13593.000	1535.490
64.000	13560.000	1535.620
65.000	13517.000	1536.000
63.000	13484.000	1536.130
64.000	13455.000	1536.260
80.000	13411.000	1536.510
64.000	13381.000	1536.640
64.000	13348.000	1536.900
64.000	13312.000	1537.150
64.000	13277.000	1537.280
64.000	13242.000	1537.410
64.000	13206.000	1537.540
64.000	13162.000	1537.790
64.000	13128.000	1538.050
63.000	13088.000	1538.050
65.000	13052.000	1538.050
63.000	13018.000	1538.170
81.000	12985.000	1538.300
64.000	12949.000	1538.430
63.000	12915.000	1538.560
64.000	12880.000	1538.560
64.000	12851.000	1538.690
64.000	12821.000	1538.690
64.000	12785.000	1538.690
64.000	12758.000	1538.690
64.000	12729.000	1538.810
64.000	12696.000	1538.810
64.000	12674.000	1538.810
63.000	12642.000	1538.940
81.000	12613.000	1538.940
64.000	12587.000	1538.940
64.000	12562.000	1538.940
64.000	12532.000	1539.070
64.000	12510.000	1539.200
64.000	12485.000	1538.940
63.000	12461.000	1539.070
65.000	12437.000	1539.200
64.000	12414.000	1539.200
63.000	12391.000	1539.200
65.000	12373.000	1539.200
64.000	12344.000	1539.320
80.000	12326.000	1539.200
63.000	12305.000	1539.320
64.000	12281.000	1539.320
65.000	12261.000	1539.450
63.000	12241.000	1539.320
64.000	12220.000	1539.320
64.000	12205.000	1539.450
64.000	12184.000	1539.320
64.000	12169.000	1539.450
64.000	12150.000	1539.450
64.000	12131.000	1539.450
64.000	12110.000	1539.450
80.000	12091.000	1539.450
63.000	12076.000	1539.450
65.000	12055.000	1539.450
63.000	12040.000	1539.580
65.000	12020.000	1539.580
63.000	12011.000	1539.580
64.000	11990.000	1539.580
65.000	11973.000	1539.580
64.000	11960.000	1539.580
64.000	11947.000	1539.710
64.000	11930.000	1539.580
64.000	11907.000	1539.710
79.000	11896.000	1539.710
65.000	11886.000	1539.710
63.000	11869.000	1539.710
64.000	11859.000	1539.580
64.000	11843.000	1539.840
65.000	11829.000	1539.710
63.000	11818.000	1539.710
64.000	11808.000	1539.710
64.000	11786.000	1539.840
64.000	11778.000	1539.710
64.000	11764.000	1539.840
64.000	11756.000	1539.840
80.000	11745.000	1539.840
64.000	11734.000	1539.840
64.000	11715.000	1539.710
64.000	11704.000	1539.840
64.000	11687.000	1539.840
64.000	11684.000	1539.840
64.000	11674.000	1539.840
64.000	11662.000	1539.840
63.000	11650.000	1539.840
64.000	11643.000	1539.960
64.000	11642.000	1539.960
65.000	11641.000	1539.840
79.000	11640.000	1539.960
65.000	11643.000	1539.840
63.000	11643.000	1539.840
64.000	11652.000	1539.840
65.000	11640.000	1539.960
63.000	11640.000	1539.960
64.000	11643.000	1539.960
64.000	11649.000	1539.960
64.000	11648.000	1539.960
64.000	11648.000	1539.960
64.000	11639.000	1539.960
64.000	11639.000	1540.090
80.000	11645.000	1539.960
64.000	11642.000	1539.960
64.000	11645.000	1539.960
64.000	11643.000	1540.090
64.000	11639.000	1540.090
64.000	11644.000	1540.090
63.000	11647.000	1540.090
64.000	11651.000	1540.090
65.000	11649.000	1539.960
63.000	11648.000	1540.090
64.000	11649.000	1540.090
65.000	11642.000	1540.090
79.000	11646.000	1540.090
64.000	11640.000	1540.090
65.000	11638.000	1540.090
63.000	11648.000	1540.090
64.000	11648.000	1540.220
64.000	11644.000	1540.090
65.000	11644.000	1539.960
63.000	11640.000	1540.090
64.000	11646.000	1540.220
64.000	11648.000	1540.090
64.000	11644.000	1540.220
64.000	11645.000	1540.090
80.000	11645.000	1540.090
64.000	11644.000	1539.960
64.000	11644.000	1540.090
64.000	11644.000	1540.090
64.000	11646.000	1540.090
63.000	11648.000	1540.090
65.000	11647.000	1540.220
64.000	11647.000	1540.090
64.000	11643.000	1540.090
63.000	11642.000	1540.090
65.000	11645.000	1540.090
63.000	11646.000	1540.090
80.000	11649.000	1540.090
64.000	11645.000	1540.090
65.000	11646.000	1540.220
64.000	11645.000	1540.220
63.000	11645.000	1540.090
64.000	11650.000	1540.090
64.000	11646.000	1540.090
64.000	11649.000	1539.960
64.000	11646.000	1540.090
64.000	11646.000	1540.220
64.000	11641.000	1540.090
64.000	11649.000	1540.090
80.000	11649.000	1540.090
64.000	11644.000	1540.090
64.000	11648.000	1540.090
64.000	11647.000	1540.090
64.000	11645.000	1540.090
64.000	11644.000	1540.090
64.000	11649.000	1540.090
64.000	11648.000	1540.220
64.000	11647.000	1540.090
64.000	11648.000	1540.090
64.000	11648.000	1540.090
63.000	11654.000	1540.090
81.000	11649.000	1540.090
64.000	11645.000	1540.220
63.000	11646.000	1540.090
65.000	11641.000	1540.220
64.000	11644.000	1540.090
63.000	11647.000	1540.090
64.000	11651.000	1540.090
64.000	11641.000	1540.090
64.000	11646.000	1540.220
64.000	11649.000	1540.350
64.000	11647.000	1540.090
64.000	11652.000	1540.220
80.000	11645.000	1540.090
64.000	11645.000	1540.090
64.000	11642.000	1540.220
64.000	11652.000	1540.090
64.000	11652.000	1540.090
64.000	11645.000	1540.090
63.000	11650.000	1540.220
64.000	11644.000	1540.090
65.000	11646.000	1540.090
64.000	11655.000	1540.220
64.000	11664.000	1540.090
63.000	11676.000	1540.220
81.000	11686.000	1540.090
64.000	11698.000	1540.220
64.000	11710.000	1540.090
63.000	11719.000	1540.090
64.000	11732.000	1540.090
64.000	11741.000	1540.220
64.000	11753.000	1540.220
64.000	11762.000	1540.090
64.000	11774.000	1540.090
65.000	11786.000	1540.090
63.000	11803.000	1540.090
64.000	11814.000	1540.090
79.000	11829.000	1540.090
65.000	11841.000	1540.220
64.000	11854.000	1540.090
64.000	11874.000	1540.090
64.000	11883.000	1540.220
64.000	11895.000	1540.090
64.000	11917.000	1540.090
64.000	11924.000	1540.090
63.000	11944.000	1540.090
64.000	11948.000	1540.090
65.000	11971.000	1540.220
63.000	11978.000	1540.090
81.000	11998.000	1540.220
64.000	12013.000	1540.090
63.000	12037.000	1540.090
64.000	12046.000	1540.220
64.000	12069.000	1540.090
64.000	12092.000	1540.220
64.000	12106.000	1540.220
64.000	12120.000	1540.220
64.000	12138.000	1540.090
64.000	12161.000	1540.090
64.000	12178.000	1540.220
64.000	12195.000	1540.220
80.000	12216.000	1540.350
64.000	12233.000	1540.220
64.000	12258.000	1540.090
64.000	12273.000	1540.090
64.000	12290.000	1540.090
63.000	12316.000	1540.090
64.000	12332.000	1540.220
64.000	12359.000	1540.220
65.000	12375.000	1540.220
64.000	12399.000	1540.090
63.000	12423.000	1540.090
65.000	12445.000	1540.090
80.000	12470.000	1540.220
63.000	12494.000	1540.090
64.000	12517.000	1539.960
64.000	12547.000	1540.090
64.000	12572.000	1540.090
64.000	12598.000	1540.220
64.000	12619.000	1540.090
64.000	12651.000	1540.220
64.000	12679.000	1540.220
64.000	12706.000	1540.220
63.000	12736.000	1540.220
64.000	12760.000	1540.090
81.000	12791.000	1540.220
64.000	12822.000	1540.220
64.000	12853.000	1540.220
64.000	12886.000	1540.220
64.000	12916.000	1540.220
64.000	12948.000	1540.090
64.000	12978.000	1540.220
64.000	13008.000	1540.220
63.000	13041.000	1540.220
64.000	13076.000	1540.350
64.000	13116.000	1540.220
65.000	13147.000	1540.480
79.000	13195.000	1540.350
64.000	13226.000	1540.480
64.000	13265.000	1540.480
64.000	13303.000	1540.600
64.000	13349.000	1540.730
64.000	13384.000	1540.860
64.000	13429.000	1540.990
64.000	13470.000	1541.240
64.000	13518.000	1541.240
64.000	13567.000	1541.500
63.000	13621.000	1541.750
64.000	13673.000	1542.010
81.000	13727.000	1542.260
64.000	13783.000	1542.520
64.000	13843.000	1542.780
64.000	13907.000	1543.160
63.000	13978.000	1543.540
64.000	14038.000	1543.800
64.000	14095.000	1544.180
65.000	14154.000	1544.570
64.000	14201.000	1545.080
64.000	14251.000	1545.590
63.000	14271.000	1545.970
65.000	14284.000	1546.480
79.000	14286.000	1546.990
64.000	14287.000	1547.630
64.000	14273.000	1548.140
64.000	14268.000	1548.660
65.000	14259.000	1549.290
63.000	14256.000	1549.930
63.000	14246.000	1550.570
65.000	14241.000	1551.080
64.000	14239.000	1551.850
64.000	14238.000	1552.620
64.000	14235.000	1553.260
63.000	14242.000	1554.020
80.000	14242.000	1554.790
65.000	14253.000	1555.680
64.000	14255.000	1556.200
64.000	14262.000	1557.220
63.000	14273.000	1557.990
65.000	14289.000	1558.750
64.000	14297.000	1559.900
64.000	14318.000	1560.800
63.000	14336.000	1561.690
64.000	14372.000	1562.590
65.000	14399.000	1563.740
63.000	14459.000	1564.760
80.000	14531.000	1565.780
65.000	14626.000	1566.930
63.000	14729.000	1568.080
64.000	14840.000	1569.230
64.000	14966.000	1570.510
65.000	15094.000	1571.790
63.000	15236.000	1573.070
64.000	15359.000	1574.350
64.000	15460.000	1575.620
64.000	15541.000	1577.030
64.000	15595.000	1578.180
64.000	15624.000	1579.590
80.000	15642.000	1581.120
64.000	15632.000	1582.400
64.000	15628.000	1583.930
64.000	15635.000	1582.400
64.000	15621.000	1583.420
64.000	15634.000	1584.950
64.000	15584.000	1586.360
64.000	15524.000	1587.890
64.000	15482.000	1589.430
63.000	15433.000	1591.090
64.000	15382.000	1592.490
64.000	15348.000	1593.770
80.000	15310.000	1595.430
64.000	15284.000	1596.840
64.000	15278.000	1598.120
65.000	15269.000	1599.400
63.000	15297.000	1600.800
64.000	15313.000	1602.720
64.000	15358.000	1604.760
64.000	15406.000	1606.300
64.000	15450.000	1607.450
64.000	15493.000	1608.220
64.000	15503.000	1608.980
64.000	15537.000	1609.880
79.000	15582.000	1610.640
65.000	15625.000	1611.280
64.000	15563.000	1610.010
64.000	15488.000	1608.340
64.000	15427.000	1606.940
63.000	15369.000	1605.790
65.000	15322.000	1604.250
63.000	15268.000	1602.590
65.000	15231.000	1600.550
63.000	15206.000	1598.630
64.000	15189.000	1596.840
65.000	15196.000	1594.800
79.000	15220.000	1592.750
64.000	15276.000	1590.580
64.000	15323.000	1585.470
64.000	15390.000	1582.530
64.000	15464.000	1579.710
64.000	15521.000	1576.770
64.000	15588.000	1573.710
64.000	15646.000	1570.890
64.000	15691.000	1567.830
64.000	15724.000	1565.140
64.000	15695.000	1562.080
64.000	15634.000	1559.010
80.000	15549.000	1556.320
64.000	15426.000	1553.260
64.000	15284.000	1550.320
63.000	15131.000	1547.500
64.000	14977.000	1544.820
65.000	14825.000	1542.390
63.000	14675.000	1539.960
64.000	14510.000	1537.790
65.000	14375.000	1535.750
64.000	14246.000	1533.960
63.000	14140.000	1532.300
64.000	14033.000	1531.140
80.000	13943.000	1529.990
64.000	13867.000	1528.970
64.000	13833.000	1528.210
64.000	13773.000	1527.570
64.000	13710.000	1527.180
64.000	13666.000	1526.800
64.000	13619.000	1526.670
64.000	13587.000	1526.420
63.000	13572.000	1526.540
64.000	13583.000	1526.800
65.000	13592.000	1526.800
63.000	13608.000	1527.050
81.000	13644.000	1527.180
64.000	13662.000	1527.440
63.000	13689.000	1527.690
65.000	13726.000	1528.080
64.000	13759.000	1528.330
63.000	13787.000	1528.590
64.000	13801.000	1528.840
64.000	13823.000	1529.230
64.000	13828.000	1529.480
64.000	13843.000	1529.870
64.000	13854.000	1529.990
64.000	13853.000	1530.380
80.000	13864.000	1530.890
64.000	13865.000	1531.020
64.000	13875.000	1531.400
64.000	13894.000	1531.660
64.000	13889.000	1532.040
64.000	13895.000	1532.420
64.000	13896.000	1532.810
64.000	13878.000	1533.060
64.000	13859.000	1533.320
64.000	13830.000	1533.450
64.000	13796.000	1533.960
79.000	13769.000	1534.210
65.000	13729.000	1534.470
64.000	13702.000	1534.720
63.000	13671.000	1534.980
65.000	13643.000	1535.230
64.000	13601.000	1535.490
63.000	13569.000	1535.750
64.000	13540.000	1536.000
64.000	13499.000	1536.260
64.000	13463.000	1536.510
64.000	13426.000	1536.510
64.000	13386.000	1537.020
80.000	13353.000	1537.020
64.000	13319.000	1537.410
64.000	13289.000	1537.660
64.000	13252.000	1537.790
64.000	13209.000	1537.790
64.000	13173.000	1538.050
64.000	13136.000	1538.170
64.000	13098.000	1538.300
64.000	13060.000	1538.300
64.000	13035.000	1538.430
64.000	12997.000	1538.430
64.000	12963.000	1538.690
80.000	12923.000	1538.690
64.000	12891.000	1538.810
64.000	12858.000	1538.810
64.000	12827.000	1538.810
63.000	12795.000	1538.940
64.000	12763.000	1538.940
64.000	12731.000	1538.940
64.000	12706.000	1539.070
64.000	12670.000	1539.070
64.000	12647.000	1539.200
64.000	12615.000	1539.200
64.000	12591.000	1539.320
80.000	12567.000	1539.200
64.000	12543.000	1539.200
64.000	12515.000	1539.320
64.000	12484.000	1539.320
64.000	12462.000	1539.320
64.000	12439.000	1539.320
65.000	12418.000	1539.320
62.000	12391.000	1539.320
65.000	12369.000	1539.450
64.000	12347.000	1539.450
64.000	12324.000	1539.450
64.000	12308.000	1539.580
80.000	12283.000	1539.710
63.000	12261.000	1539.580
64.000	12240.000	1539.450
64.000	12220.000	1539.580
64.000	12196.000	1539.710
65.000	12181.000	1539.710
64.000	12160.000	1539.710
64.000	12146.000	1539.710
64.000	12121.000	1539.580
63.000	12102.000	1539.710
64.000	12090.000	1539.710
64.000	12073.000	1539.840
80.000	12055.000	1539.840
64.000	12034.000	1539.710
64.000	12015.000	1539.840
64.000	12001.000	1539.840
64.000	11986.000	1539.840
64.000	11968.000	1539.840
64.000	11957.000	1539.840
64.000	11938.000	1539.840
64.000	11921.000	1539.840
64.000	11906.000	1539.960
64.000	11892.000	1539.960
64.000	11876.000	1539.960
79.000	11868.000	1539.960
64.000	11848.000	1539.960
65.000	11839.000	1539.840
64.000	11818.000	1539.960
64.000	11808.000	1539.840
64.000	11794.000	1539.960
63.000	11788.000	1539.960
64.000	11777.000	1539.960
65.000	11760.000	1539.960
63.000	11746.000	1539.960
64.000	11735.000	1539.960
64.000	11722.000	1539.960
64.000	11714.000	1540.090
80.000	11700.000	1540.090
64.000	11692.000	1540.090
64.000	11679.000	1540.090
65.000	11659.000	1540.090
63.000	11660.000	1540.220
64.000	11643.000	1540.090
64.000	11636.000	1540.090
64.000	11634.000	1540.090
64.000	11635.000	1540.090
64.000	11640.000	1540.220
64.000	11629.000	1540.090
64.000	11633.000	1540.090
79.000	11638.000	1540.090
65.000	11633.000	1540.090
64.000	11631.000	1540.090
64.000	11634.000	1540.090
63.000	11635.000	1540.090
64.000	11632.000	1540.220
64.000	11639.000	1540.090
64.000	11640.000	1540.090
64.000	11633.000	1540.090
64.000	11638.000	1540.090
64.000	11635.000	1540.220
64.000	11634.000	1540.220
80.000	11634.000	1540.220
64.000	11636.000	1540.220
65.000	11635.000	1540.090
63.000	11636.000	1540.220
64.000	11632.000	1540.090
64.000	11639.000	1540.090
63.000	11635.000	1540.090
65.000	11633.000	1540.090
64.000	11633.000	1540.090
64.000	11634.000	1540.090
64.000	11636.000	1540.090
80.000	11635.000	1540.220
64.000	11637.000	1540.220
64.000	11635.000	1540.220
64.000	11637.000	1540.220
63.000	11635.000	1540.090
65.000	11637.000	1540.220
64.000	11634.000	1540.090
63.000	11635.000	1540.220
65.000	11638.000	1540.090
63.000	11635.000	1540.090
64.000	11639.000	1540.090
64.000	11640.000	1540.220
80.000	11639.000	1540.090
65.000	11627.000	1540.220
63.000	11634.000	1540.220
64.000	11637.000	1540.090
64.000	11637.000	1540.220
64.000	11641.000	1540.220
64.000	11637.000	1540.090
64.000	11631.000	1540.220
63.000	11641.000	1540.090
65.000	11634.000	1540.220
64.000	11638.000	1540.220
64.000	11635.000	1540.220
80.000	11634.000	1540.220
63.000	11641.000	1540.220
64.000	11636.000	1540.220
64.000	11638.000	1540.220
65.000	11637.000	1540.220
64.000	11636.000	1540.090
64.000	11638.000	1540.220
63.000	11633.000	1540.350
64.000	11633.000	1540.220
64.000	11637.000	1540.220
64.000	11636.000	1540.220
64.000	11636.000	1540.090
64.000	11634.000	1540.220
80.000	11629.000	1540.220
64.000	11635.000	1540.090
65.000	11638.000	1540.220
63.000	11638.000	1540.220
64.000	11635.000	1540.220
63.000	11637.000	1540.090
65.000	11636.000	1540.220
64.000	11639.000	1540.220
63.000	11638.000	1540.220
65.000	11635.000	1540.220
63.000	11636.000	1540.090
64.000	11636.000	1540.220
81.000	11639.000	1540.090
63.000	11639.000	1540.220
65.000	11640.000	1540.220
64.000	11636.000	1540.220
64.000	11638.000	1540.220
64.000	11635.000	1540.090
63.000	11640.000	1540.090
64.000	11632.000	1540.090
64.000	11633.000	1540.350
64.000	11638.000	1540.220
64.000	11636.000	1540.220
80.000	11635.000	1540.220
64.000	11636.000	1540.350
64.000	11634.000	1540.220
64.000	11637.000	1540.350
64.000	11642.000	1540.220
64.000	11634.000	1540.350
64.000	11642.000	1540.090
64.000	11640.000	1540.090
64.000	11651.000	1540.350
63.000	11663.000	1540.220
65.000	11675.000	1540.220
64.000	11682.000	1540.220
79.000	11694.000	1540.220
64.000	11706.000	1540.220
65.000	11714.000	1540.350
63.000	11723.000	1540.220
64.000	11740.000	1540.220
64.000	11753.000	1540.220
64.000	11767.000	1540.220
64.000	11774.000	1540.350
64.000	11794.000	1540.220
64.000	11803.000	1540.220
64.000	11812.000	1540.220
64.000	11835.000	1540.220
80.000	11840.000	1540.220
64.000	11860.000	1540.350
64.000	11875.000	1540.220
64.000	11887.000	1540.220
64.000	11898.000	1540.350
64.000	11909.000	1540.220
64.000	11931.000	1540.220
64.000	11941.000	1540.220
64.000	11956.000	1540.220
63.000	11974.000	1540.220
65.000	11992.000	1540.220
64.000	12004.000	1540.220
80.000	12026.000	1540.220
64.000	12036.000	1540.220
64.000	12060.000	1540.350
64.000	12070.000	1540.220
63.000	12089.000	1540.220
65.000	12107.000	1540.220
64.000	12130.000	1540.220
63.000	12145.000	1540.220
64.000	12166.000	1540.220
65.000	12180.000	1540.220
62.000	12205.000	1540.220
65.000	12218.000	1540.350
80.000	12235.000	1540.220
65.000	12258.000	1540.220
63.000	12277.000	1540.220
64.000	12300.000	1540.220
63.000	12325.000	1540.480
65.000	12340.000	1540.220
64.000	12363.000	1540.220
64.000	12384.000	1540.220
64.000	12411.000	1540.350
64.000	12429.000	1540.350
64.000	12457.000	1540.220
63.000	12478.000	1540.350
81.000	12500.000	1540.220
64.000	12530.000	1540.220
63.000	12555.000	1540.220
65.000	12582.000	1540.350
63.000	12605.000	1540.220
64.000	12635.000	1540.350
64.000	12660.000	1540.220
64.000	12687.000	1540.350
64.000	12715.000	1540.220
64.000	12745.000	1540.220
64.000	12776.000	1540.220
64.000	12805.000	1540.220
80.000	12836.000	1540.220
65.000	12867.000	1540.350
63.000	12898.000	1540.350
64.000	12932.000	1540.220
63.000	12964.000	1540.220
65.000	12992.000	1540.350
64.000	13028.000	1540.350
64.000	13059.000	1540.350
64.000	13104.000	1540.480
64.000	13138.000	1540.480
64.000	13169.000	1540.480
63.000	13212.000	1540.600
81.000	13248.000	1540.600
63.000	13287.000	1540.730
65.000	13333.000	1540.730
63.000	13370.000	1540.860
65.000	13406.000	1541.110
63.000	13459.000	1541.240
64.000	13491.000	1541.500
64.000	13537.000	1541.500
64.000	13592.000	1541.750
65.000	13649.000	1542.010
63.000	13700.000	1542.260
64.000	13762.000	1542.650
81.000	13818.000	1542.780
63.000	13881.000	1543.290
64.000	13953.000	1543.410
64.000	14015.000	1543.800
64.000	14076.000	1544.180
64.000	14140.000	1544.570
64.000	14187.000	1545.080
64.000	14235.000	1545.460
64.000	14271.000	1545.970
64.000	14289.000	1546.480
63.000	14298.000	1546.870
64.000	14296.000	1547.380
80.000	14287.000	1547.890
65.000	14283.000	1548.530
63.000	14268.000	1548.910
64.000	14265.000	1549.550
65.000	14257.000	1550.060
63.000	14249.000	1550.700
64.000	14240.000	1551.470
65.000	14237.000	1551.980
63.000	14244.000	1552.750
64.000	14248.000	1553.380
64.000	14254.000	1554.150
64.000	14258.000	1554.920
80.000	14256.000	1555.810
64.000	14265.000	1556.710
64.000	14278.000	1557.600
64.000	14284.000	1558.500
64.000	14300.000	1559.390
64.000	14315.000	1560.290
64.000	14333.000	1561.180
64.000	14360.000	1562.080
63.000	14392.000	1563.230
65.000	14442.000	1564.250
64.000	14518.000	1565.270
64.000	14613.000	1566.420
80.000	14711.000	1567.700
63.000	14822.000	1568.850
64.000	14946.000	1569.870
64.000	15072.000	1571.150
64.000	15217.000	1572.560
64.000	15333.000	1573.710
64.000	15447.000	1575.110
65.000	15523.000	1576.260
63.000	15583.000	1577.670
64.000	15622.000	1579.070
64.000	15628.000	1580.480
64.000	15611.000	1581.760
80.000	15627.000	1583.160
64.000	15628.000	1584.570
64.000	15613.000	1583.680
64.000	15635.000	1584.700
64.000	15594.000	1586.230
64.000	15539.000	1587.770
64.000	15491.000	1589.300
64.000	15438.000	1590.960
63.000	15382.000	1592.370
65.000	15354.000	1593.770
63.000	15315.000	1595.310
64.000	15279.000	1596.710
80.000	15275.000	1598.250
65.000	15257.000	1599.520
64.000	15277.000	1600.800
64.000	15303.000	1602.080
64.000	15340.000	1604.760
63.000	15393.000	1606.300
64.000	15441.000	1607.580
64.000	15487.000	1608.470
64.000	15492.000	1609.370
64.000	15537.000	1610.130
64.000	15578.000	1611.030
64.000	15604.000	1611.920
80.000	15601.000	1611.280
64.000	15533.000	1609.750
64.000	15454.000	1608.470
64.000	15399.000	1607.070
64.000	15345.000	1605.400
63.000	15294.000	1603.870
65.000	15248.000	1601.950
64.000	15214.000	1600.160
64.000	15200.000	1598.120
64.000	15183.000	1596.330
64.000	15196.000	1594.160
63.000	15229.000	1591.980
80.000	15285.000	1587.130
64.000	15344.000	1584.060
64.000	15406.000	1581.250
65.000	15461.000	1578.560
64.000	15523.000	1575.500
63.000	15590.000	1572.680
64.000	15637.000	1569.620
64.000	15683.000	1566.550
64.000	15704.000	1563.740
64.000	15653.000	1560.800
64.000	15593.000	1557.860
64.000	15495.000	1554.920
80.000	15353.000	1551.980
64.000	15211.000	1549.040
64.000	15059.000	1546.350
64.000	14904.000	1543.670
64.000	14747.000	1541.370
63.000	14598.000	1539.070
64.000	14443.000	1536.900
65.000	14313.000	1534.980
64.000	14198.000	1533.320
63.000	14092.000	1531.910
64.000	14000.000	1530.630
64.000	13907.000	1529.740
80.000	13868.000	1528.970
65.000	13812.000	1528.210
63.000	13747.000	1527.690
64.000	13693.000	1527.310
65.000	13646.000	1527.050
64.000	13608.000	1526.930
64.000	13594.000	1526.800
63.000	13576.000	1527.050
64.000	13588.000	1526.930
64.000	13598.000	1527.310
64.000	13626.000	1527.310
64.000	13647.000	1527.690
80.000	13674.000	1527.820
64.000	13713.000	1528.210
63.000	13740.000	1528.590
64.000	13776.000	1528.840
65.000	13798.000	1529.100
64.000	13817.000	1529.230
64.000	13828.000	1529.740
64.000	13837.000	1529.990
63.000	13847.000	1530.250
65.000	13856.000	1530.630
64.000	13870.000	1530.890
63.000	13875.000	1531.270
81.000	13866.000	1531.530
63.000	13883.000	1531.910
64.000	13893.000	1532.300
64.000	13898.000	1532.550
64.000	13897.000	1532.810
64.000	13890.000	1533.060
64.000	13871.000	1533.450
64.000	13848.000	1533.830
64.000	13820.000	1534.080
64.000	13794.000	1534.470
65.000	13768.000	1534.600
63.000	13722.000	1534.980
80.000	13694.000	1535.110
64.000	13667.000	1535.620
64.000	13631.000	1535.870
64.000	13603.000	1536.130
64.000	13563.000	1536.390
63.000	13523.000	1536.510
65.000	13491.000	1536.770
64.000	13457.000	1536.900
64.000	13417.000	1537.280
63.000	13385.000	1537.410
64.000	13348.000	1537.660
65.000	13321.000	1537.790
79.000	13279.000	1538.050
64.000	13240.000	1538.170
64.000	13205.000	1538.300
64.000	13169.000	1538.430
64.000	13128.000	1538.560
64.000	13095.000	1538.690
64.000	13051.000	1538.810
63.000	13025.000	1538.690
65.000	12991.000	1538.940
64.000	12958.000	1538.940
64.000	12920.000	1539.070
64.000	12889.000	1539.070
80.000	12855.000	1539.200
64.000	12823.000	1539.200
64.000	12794.000	1539.200
64.000	12761.000	1539.320
63.000	12730.000	1539.450
65.000	12702.000	1539.450
64.000	12667.000	1539.450
64.000	12640.000	1539.450
64.000	12614.000	1539.580
64.000	12582.000	1539.580
63.000	12561.000	1539.580
64.000	12533.000	1539.580
81.000	12507.000	1539.710
63.000	12483.000	1539.710
64.000	12457.000	1539.710
64.000	12434.000	1539.710
64.000	12413.000	1539.710
64.000	12388.000	1539.840
65.000	12364.000	1539.840
63.000	12345.000	1539.710
64.000	12321.000	1539.840
64.000	12303.000	1539.960
64.000	12277.000	1539.840
63.000	12256.000	1539.960
81.000	12241.000	1539.960
63.000	12220.000	1540.090
65.000	12199.000	1539.960
64.000	12183.000	1539.960
64.000	12166.000	1540.090
64.000	12141.000	1539.960
64.000	12125.000	1540.220
63.000	12114.000	1540.090
65.000	12093.000	1540.090
63.000	12077.000	1540.090
65.000	12054.000	1540.220
63.000	12037.000	1540.090
81.000	12018.000	1540.220
63.000	12005.000	1540.220
64.000	11995.000	1540.090
64.000	11973.000	1540.220
64.000	11957.000	1540.350
64.000	11942.000	1540.220
64.000	11933.000	1540.220
64.000	11913.000	1540.350
64.000	11901.000	1540.220
64.000	11884.000	1540.350
64.000	11876.000	1540.350
63.000	11857.000	1540.350
81.000	11847.000	1540.220
64.000	11831.000	1540.350
64.000	11816.000	1540.350
63.000	11799.000	1540.480
64.000	11789.000	1540.350
65.000	11775.000	1540.480
63.000	11769.000	1540.480
65.000	11757.000	1540.480
64.000	11741.000	1540.480
64.000	11728.000	1540.480
63.000	11719.000	1540.600
65.000	11706.000	1540.480
80.000	11699.000	1540.480
64.000	11682.000	1540.480
63.000	11679.000	1540.480
65.000	11662.000	1540.480
63.000	11652.000	1540.480
65.000	11644.000	1540.600
63.000	11651.000	1540.600
64.000	11650.000	1540.480
64.000	11649.000	1540.480
64.000	11646.000	1540.600
64.000	11647.000	1540.600
64.000	11648.000	1540.730
79.000	11649.000	1540.600
65.000	11646.000	1540.600
63.000	11652.000	1540.600
64.000	11661.000	1540.480
65.000	11652.000	1540.600
63.000	11644.000	1540.600
64.000	11652.000	1540.730
64.000	11645.000	1540.600
64.000	11647.000	1540.600
64.000	11651.000	1540.730
64.000	11647.000	1540.730
64.000	11642.000	1540.600
80.000	11647.000	1540.600
64.000	11644.000	1540.730
64.000	11647.000	1540.600
64.000	11650.000	1540.730
65.000	11644.000	1540.730
63.000	11653.000	1540.730
64.000	11649.000	1540.730
64.000	11642.000	1540.730
64.000	11648.000	1540.730
63.000	11650.000	1540.730
65.000	11646.000	1540.730
64.000	11644.000	1540.730
80.000	11650.000	1540.860
64.000	11649.000	1540.730
64.000	11644.000	1540.730
63.000	11646.000	1540.730
64.000	11650.000	1540.860
65.000	11650.000	1540.730
64.000	11649.000	1540.730
64.000	11639.000	1540.730
63.000	11653.000	1540.730
65.000	11647.000	1540.730
64.000	11655.000	1540.860
63.000	11654.000	1540.730
80.000	11644.000	1540.730
64.000	11645.000	1540.730
65.000	11646.000	1540.860
63.000	11647.000	1540.860
64.000	11650.000	1540.860
64.000	11648.000	1540.600
64.000	11643.000	1540.730
65.000	11642.000	1540.730
63.000	11644.000	1540.730
64.000	11649.000	1540.730
64.000	11649.000	1540.860
64.000	11643.000	1540.730
79.000	11646.000	1540.860
65.000	11645.000	1540.730
64.000	11642.000	1540.730
63.000	11644.000	1540.730
65.000	11640.000	1540.730
64.000	11645.000	1540.860
64.000	11649.000	1540.730
64.000	11645.000	1540.860
63.000	11644.000	1540.860
64.000	11644.000	1540.730
65.000	11647.000	1540.730
64.000	11647.000	1540.860
80.000	11647.000	1540.730
63.000	11643.000	1540.860
64.000	11647.000	1540.860
65.000	11648.000	1540.730
63.000	11645.000	1540.730
64.000	11644.000	1540.860
64.000	11642.000	1540.860
64.000	11647.000	1540.860
64.000	11641.000	1540.860
64.000	11644.000	1540.730
64.000	11650.000	1540.730
64.000	11643.000	1540.860
80.000	11650.000	1540.730
64.000	11647.000	1540.730
64.000	11643.000	1540.860
64.000	11652.000	1540.730
64.000	11643.000	1540.860
64.000	11647.000	1540.730
64.000	11645.000	1540.730
64.000	11652.000	1540.860
64.000	11640.000	1540.990
64.000	11641.000	1540.730
64.000	11651.000	1540.860
64.000	11648.000	1540.860
80.000	11647.000	1540.860
64.000	11649.000	1540.730
64.000	11646.000	1540.860
63.000	11640.000	1540.730
64.000	11646.000	1540.860
64.000	11659.000	1540.730
65.000	11668.000	1540.730
64.000	11682.000	1540.860
64.000	11688.000	1540.860
63.000	11701.000	1540.730
64.000	11709.000	1540.990
64.000	11725.000	1540.730
80.000	11738.000	1540.860
64.000	11746.000	1540.860
64.000	11755.000	1540.860
64.000	11769.000	1540.860
63.000	11785.000	1540.730
64.000	11798.000	1540.730
64.000	11812.000	1540.730
65.000	11818.000	1540.860
64.000	11835.000	1540.730
64.000	11847.000	1540.860
64.000	11862.000	1540.730
63.000	11877.000	1540.860
80.000	11892.000	1540.860
65.000	11907.000	1540.730
63.000	11921.000	1540.860
64.000	11934.000	1540.730
65.000	11946.000	1540.860
64.000	11965.000	1540.730
64.000	11982.000	1540.860
64.000	11994.000	1540.860
63.000	12013.000	1540.860
64.000	12022.000	1540.860
64.000	12045.000	1540.990
64.000	12056.000	1540.990
80.000	12079.000	1540.860
64.000	12101.000	1540.730
63.000	12116.000	1540.860
65.000	12132.000	1540.860
64.000	12155.000	1540.860
64.000	12167.000	1540.990
63.000	12185.000	1540.730
65.000	12205.000	1540.730
64.000	12225.000	1540.860
64.000	12246.000	1540.990
63.000	12267.000	1540.990
65.000	12280.000	1540.860
80.000	12308.000	1540.860
64.000	12323.000	1540.860
63.000	12347.000	1540.860
65.000	12374.000	1540.730
63.000	12390.000	1540.860
65.000	12413.000	1540.990
63.000	12435.000	1540.860
64.000	12463.000	1540.990
64.000	12486.000	1540.860
64.000	12510.000	1540.860
65.000	12533.000	1540.730
63.000	12557.000	1540.860
80.000	12588.000	1540.860
64.000	12611.000	1540.860
64.000	12641.000	1540.990
64.000	12668.000	1540.990
64.000	12692.000	1540.860
63.000	12719.000	1540.860
64.000	12751.000	1540.860
65.000	12776.000	1540.860
64.000	12812.000	1540.990
64.000	12843.000	1540.860
64.000	12874.000	1540.730
63.000	12905.000	1540.860
81.000	12934.000	1540.860
64.000	12969.000	1540.860
63.000	13003.000	1540.860
65.000	13030.000	1540.860
63.000	13067.000	1540.860
64.000	13098.000	1540.990
65.000	13136.000	1541.110
63.000	13171.000	1540.990
65.000	13214.000	1541.110
63.000	13260.000	1541.110
65.000	13305.000	1541.240
63.000	13333.000	1541.370
80.000	13370.000	1541.500
64.000	13416.000	1541.630
64.000	13461.000	1541.750
64.000	13498.000	1541.880
64.000	13539.000	1542.140
63.000	13595.000	1542.390
65.000	13650.000	1542.520
64.000	13703.000	1542.780
64.000	13761.000	1543.160
63.000	13817.000	1543.290
64.000	13875.000	1543.670
64.000	13941.000	1544.050
80.000	14011.000	1544.310
64.000	14066.000	1544.570
64.000	14128.000	1545.080
64.000	14185.000	1545.460
64.000	14235.000	1545.840
64.000	14277.000	1546.350
64.000	14296.000	1546.870
64.000	14305.000	1547.250
64.000	14306.000	1547.890
65.000	14296.000	1548.400
64.000	14290.000	1548.910
63.000	14283.000	1549.420
80.000	14272.000	1550.060
63.000	14264.000	1550.700
65.000	14251.000	1551.210
64.000	14247.000	1551.850
64.000	14239.000	1552.490
64.000	14239.000	1553.260
64.000	14247.000	1553.900
64.000	14249.000	1554.660
64.000	14247.000	1555.430
64.000	14255.000	1556.320
64.000	14261.000	1557.090
64.000	14272.000	1557.990
79.000	14277.000	1558.880
65.000	14289.000	1559.650
64.000	14305.000	1560.800
64.000	14330.000	1561.690
63.000	14353.000	1562.590
64.000	14389.000	1563.740
65.000	14440.000	1564.630
63.000	14508.000	1565.780
64.000	14599.000	1566.800
64.000	14696.000	1567.950
64.000	14810.000	1569.110
64.000	14927.000	1570.510
80.000	15061.000	1571.660
64.000	15197.000	1572.810
64.000	15327.000	1574.090
64.000	15427.000	1575.370
64.000	15513.000	1576.770
64.000	15577.000	1578.050
64.000	15600.000	1579.330
64.000	15619.000	1580.740
63.000	15604.000	1582.010
64.000	15602.000	1583.420
65.000	15610.000	1584.830
64.000	15596.000	1584.060
80.000	15593.000	1585.210
64.000	15585.000	1586.620
63.000	15518.000	1588.400
65.000	15468.000	1589.810
63.000	15426.000	1591.340
64.000	15367.000	1592.750
64.000	15341.000	1594.410
64.000	15303.000	1595.690
64.000	15262.000	1597.220
64.000	15262.000	1598.630
65.000	15248.000	1599.910
63.000	15266.000	1601.310
80.000	15285.000	1602.590
64.000	15322.000	1605.020
64.000	15369.000	1606.810
64.000	15429.000	1608.090
64.000	15468.000	1609.110
63.000	15484.000	1610.130
64.000	15510.000	1610.900
65.000	15561.000	1611.670
64.000	15599.000	1612.560
63.000	15615.000	1612.820
64.000	15544.000	1611.030
64.000	15471.000	1609.620
81.000	15409.000	1608.220
64.000	15353.000	1606.810
63.000	15300.000	1605.280
65.000	15249.000	1603.490
64.000	15214.000	1601.570
63.000	15184.000	1599.650
64.000	15173.000	1597.610
64.000	15183.000	1595.430
64.000	15208.000	1593.520
65.000	15251.000	1588.920
63.000	15307.000	1585.850
64.000	15371.000	1582.910
80.000	15426.000	1579.970
64.000	15492.000	1577.030
64.000	15550.000	1574.090
64.000	15608.000	1571.150
64.000	15651.000	1568.210
64.000	15672.000	1565.270
63.000	15650.000	1562.200
64.000	15608.000	1559.390
64.000	15522.000	1556.320
65.000	15401.000	1553.260
63.000	15257.000	1550.570
65.000	15116.000	1547.890
80.000	14958.000	1545.080
64.000	14800.000	1542.650
63.000	14652.000	1540.220
64.000	14500.000	1538.170
64.000	14357.000	1536.130
64.000	14246.000	1534.340
65.000	14137.000	1532.810
63.000	14031.000	1531.660
64.000	13950.000	1530.630
64.000	13866.000	1529.740
65.000	13831.000	1528.840
64.000	13766.000	1528.330
79.000	13712.000	1527.820
64.000	13671.000	1527.690
64.000	13632.000	1527.440
64.000	13596.000	1527.440
64.000	13583.000	1527.440
64.000	13580.000	1527.570
64.000	13589.000	1527.690
64.000	13608.000	1527.820
64.000	13635.000	1528.080
63.000	13664.000	1528.330
64.000	13685.000	1528.590
64.000	13721.000	1528.840
80.000	13770.000	1529.100
64.000	13785.000	1529.480
64.000	13808.000	1529.870
64.000	13819.000	1530.120
65.000	13833.000	1530.380
63.000	13839.000	1530.760
65.000	13839.000	1531.140
63.000	13848.000	1531.400
65.000	13857.000	1531.660
63.000	13862.000	1532.040
64.000	13870.000	1532.420
64.000	13877.000	1532.680
80.000	13887.000	1532.930
64.000	13885.000	1533.450
64.000	13881.000	1533.570
64.000	13873.000	1533.960
64.000	13840.000	1534.210
64.000	13807.000	1534.600
64.000	13785.000	1534.720
64.000	13751.000	1535.110
63.000	13725.000	1535.490
65.000	13693.000	1535.750
63.000	13658.000	1536.000
64.000	13632.000	1536.260
81.000	13596.000	1536.640
64.000	13563.000	1536.770
64.000	13526.000	1537.020
63.000	13490.000	1537.150
64.000	13462.000	1537.540
64.000	13419.000	1537.660
65.000	13381.000	1537.790
63.000	13350.000	1538.050
64.000	13324.000	1538.430
64.000	13282.000	1538.560
64.000	13240.000	1538.690
64.000	13202.000	1538.690
80.000	13164.000	1538.940
64.000	13129.000	1538.940
64.000	13092.000	1539.200
64.000	13059.000	1539.320
64.000	13023.000	1539.450
64.000	12992.000	1539.450
63.000	12954.000	1539.580
65.000	12922.000	1539.580
64.000	12887.000	1539.710
64.000	12854.000	1539.710
64.000	12824.000	1539.710
63.000	12789.000	1539.840
81.000	12760.000	1539.840
64.000	12727.000	1540.090
64.000	12697.000	1540.090
64.000	12666.000	1539.960
63.000	12638.000	1540.090
64.000	12609.000	1540.090
65.000	12586.000	1540.090
64.000	12556.000	1540.220
63.000	12530.000	1540.220
64.000	12507.000	1540.220
64.000	12479.000	1540.220
64.000	12457.000	1540.350
81.000	12427.000	1540.480
63.000	12407.000	1540.220
64.000	12382.000	1540.480
64.000	12363.000	1540.480
64.000	12337.000	1540.350
64.000	12317.000	1540.600
63.000	12296.000	1540.480
64.000	12275.000	1540.480
65.000	12252.000	1540.600
64.000	12233.000	1540.730
63.000	12217.000	1540.600
65.000	12197.000	1540.600
79.000	12173.000	1540.600
64.000	12156.000	1540.730
65.000	12136.000	1540.730
64.000	12117.000	1540.730
63.000	12104.000	1540.730
65.000	12085.000	1540.730
63.000	12061.000	1540.730
64.000	12047.000	1540.730
64.000	12029.000	1540.860
64.000	12006.000	1540.730
64.000	11993.000	1540.730
64.000	11976.000	1540.860
79.000	11965.000	1540.730
66.000	11942.000	1540.730
63.000	11928.000	1540.730
64.000	11916.000	1540.730
63.000	11900.000	1540.990
65.000	11881.000	1540.860
64.000	11867.000	1540.990
64.000	11859.000	1540.860
64.000	11842.000	1540.990
64.000	11826.000	1540.990
64.000	11808.000	1540.860
63.000	11800.000	1540.860
80.000	11791.000	1540.990
65.000	11773.000	1540.990
64.000	11759.000	1540.990
63.000	11749.000	1540.990
64.000	11739.000	1541.110
65.000	11728.000	1541.110
63.000	11712.000	1541.110
64.000	11698.000	1540.990
64.000	11687.000	1540.990
64.000	11675.000	1541.110
64.000	11665.000	1541.110
64.000	11654.000	1541.110
80.000	11643.000	1541.110
64.000	11632.000	1541.110
64.000	11622.000	1541.110
64.000	11621.000	1541.240
64.000	11631.000	1541.110
64.000	11628.000	1541.110
64.000	11626.000	1541.110
64.000	11626.000	1541.110
64.000	11630.000	1541.110
64.000	11628.000	1541.110
64.000	11626.000	1541.110
64.000	11623.000	1541.240
80.000	11627.000	1541.240
64.000	11626.000	1541.370
64.000	11622.000	1541.240
64.000	11628.000	1541.240
64.000	11626.000	1541.240
63.000	11627.000	1541.370
65.000	11625.000	1541.240
63.000	11625.000	1541.240
65.000	11627.000	1541.240
63.000	11627.000	1541.240
64.000	11625.000	1541.370
64.000	11618.000	1541.240
81.000	11625.000	1541.240
63.000	11623.000	1541.370
64.000	11627.000	1541.240
63.000	11623.000	1541.370
65.000	11620.000	1541.240
64.000	11623.000	1541.240
64.000	11623.000	1541.240
63.000	11629.000	1541.240
65.000	11622.000	1541.240
64.000	11623.000	1541.240
64.000	11624.000	1541.240
64.000	11621.000	1541.370
80.000	11623.000	1541.370
63.000	11618.000	1541.370
64.000	11621.000	1541.370
64.000	11625.000	1541.370
64.000	11623.000	1541.500
65.000	11623.000	1541.370
63.000	11617.000	1541.370
64.000	11622.000	1541.370
64.000	11618.000	1541.370
64.000	11622.000	1541.370
64.000	11624.000	1541.370
64.000	11625.000	1541.370
80.000	11627.000	1541.370
64.000	11626.000	1541.370
63.000	11622.000	1541.500
65.000	11621.000	1541.370
64.000	11616.000	1541.370
64.000	11624.000	1541.500
63.000	11622.000	1541.500
65.000	11625.000	1541.500
63.000	11629.000	1541.500
65.000	11627.000	1541.370
64.000	11623.000	1541.500
63.000	11624.000	1541.500
81.000	11627.000	1541.500
64.000	11625.000	1541.500
63.000	11620.000	1541.500
65.000	11617.000	1541.500
63.000	11625.000	1541.500
64.000	11624.000	1541.630
64.000	11619.000	1541.500
64.000	11622.000	1541.500
64.000	11626.000	1541.500
64.000	11624.000	1541.500
64.000	11623.000	1541.500
64.000	11630.000	1541.500
80.000	11625.000	1541.500
64.000	11620.000	1541.500
64.000	11624.000	1541.500
64.000	11626.000	1541.630
64.000	11623.000	1541.500
63.000	11625.000	1541.500
65.000	11621.000	1541.630
64.000	11620.000	1541.500
63.000	11618.000	1541.500
64.000	11627.000	1541.630
64.000	11627.000	1541.630
64.000	11625.000	1541.500
81.000	11625.000	1541.370
64.000	11626.000	1541.500
63.000	11625.000	1541.630
64.000	11623.000	1541.630
64.000	11623.000	1541.500
64.000	11628.000	1541.500
65.000	11625.000	1541.630
63.000	11628.000	1541.630
64.000	11629.000	1541.500
64.000	11621.000	1541.630
64.000	11627.000	1541.630
64.000	11621.000	1541.500
80.000	11625.000	1541.500
64.000	11624.000	1541.630
63.000	11626.000	1541.500
65.000	11637.000	1541.500
64.000	11648.000	1541.500
64.000	11662.000	1541.500
64.000	11664.000	1541.500
64.000	11681.000	1541.630
64.000	11694.000	1541.500
64.000	11708.000	1541.630
63.000	11717.000	1541.500
65.000	11731.000	1541.630
80.000	11744.000	1541.630
63.000	11752.000	1541.500
64.000	11765.000	1541.500
64.000	11776.000	1541.500
64.000	11790.000	1541.630
64.000	11807.000	1541.630
64.000	11815.000	1541.630
64.000	11833.000	1541.500
65.000	11846.000	1541.630
63.000	11857.000	1541.630
64.000	11868.000	1541.630
64.000	11892.000	1541.500
80.000	11900.000	1541.500
64.000	11918.000	1541.500
63.000	11935.000	1541.630
65.000	11948.000	1541.630
63.000	11958.000	1541.630
65.000	11980.000	1541.630
64.000	11992.000	1541.630
63.000	12013.000	1541.630
65.000	12025.000	1541.630
64.000	12046.000	1541.500
64.000	12059.000	1541.500
63.000	12075.000	1541.500
80.000	12096.000	1541.630
65.000	12119.000	1541.500
64.000	12134.000	1541.630
63.000	12154.000	1541.630
64.000	12174.000	1541.630
64.000	12191.000	1541.500
64.000	12208.000	1541.500
64.000	12232.000	1541.750
64.000	12250.000	1541.500
64.000	12270.000	1541.500
64.000	12291.000	1541.630
64.000	12308.000	1541.500
80.000	12334.000	1541.500
64.000	12355.000	1541.500
64.000	12375.000	1541.500
63.000	12398.000	1541.630
65.000	12423.000	1541.630
64.000	12444.000	1541.630
63.000	12470.000	1541.630
65.000	12493.000	1541.500
64.000	12517.000	1541.630
64.000	12545.000	1541.630
63.000	12573.000	1541.630
64.000	12594.000	1541.500
80.000	12625.000	1541.500
64.000	12650.000	1541.630
64.000	12679.000	1541.630
65.000	12704.000	1541.750
63.000	12738.000	1541.630
64.000	12766.000	1541.500
65.000	12799.000	1541.500
63.000	12828.000	1541.500
64.000	12857.000	1541.630
63.000	12891.000	1541.500
65.000	12925.000	1541.630
64.000	12954.000	1541.630
80.000	12987.000	1541.750
64.000	13025.000	1541.630
64.000	13055.000	1541.630
64.000	13089.000	1541.630
64.000	13129.000	1541.630
63.000	13168.000	1541.750
64.000	13203.000	1541.750
65.000	13238.000	1541.880
63.000	13279.000	1542.010
65.000	13323.000	1542.010
63.000	13361.000	1542.140
64.000	13399.000	1542.140
81.000	13442.000	1542.520
63.000	13491.000	1542.650
65.000	13533.000	1542.900
63.000	13587.000	1543.030
64.000	13641.000	1543.290
65.000	13698.000	1543.410
63.000	13748.000	1543.800
64.000	13812.000	1544.050
64.000	13877.000	1544.440
63.000	13949.000	1544.820
65.000	14013.000	1544.950
64.000	14079.000	1545.590
80.000	14141.000	1545.840
64.000	14188.000	1546.230
64.000	14242.000	1546.610
64.000	14283.000	1547.120
63.000	14303.000	1547.630
65.000	14305.000	1548.140
64.000	14306.000	1548.660
64.000	14298.000	1549.170
63.000	14289.000	1549.680
64.000	14282.000	1550.190
64.000	14275.000	1550.830
64.000	14262.000	1551.470
80.000	14252.000	1552.110
64.000	14245.000	1552.750
64.000	14239.000	1553.260
64.000	14250.000	1554.150
64.000	14251.000	1554.790
64.000	14247.000	1555.560
64.000	14251.000	1556.320
64.000	14257.000	1557.220
64.000	14269.000	1557.990
64.000	14277.000	1558.880
64.000	14285.000	1559.770
64.000	14290.000	1560.670
79.000	14312.000	1561.560
65.000	14327.000	1562.590
64.000	14358.000	1563.350
63.000	14392.000	1564.500
65.000	14442.000	1565.650
64.000	14522.000	1566.680
63.000	14613.000	1567.700
65.000	14716.000	1568.980
64.000	14824.000	1570.130
64.000	14950.000	1571.280
63.000	15087.000	1572.560
64.000	15220.000	1573.830
81.000	15334.000	1575.110
63.000	15438.000	1576.520
65.000	15536.000	1577.800
63.000	15579.000	1579.070
65.000	15600.000	1580.480
63.000	15612.000	1581.890
65.000	15604.000	1583.040
64.000	15606.000	1584.440
64.000	15606.000	1585.850
62.000	15589.000	1584.830
65.000	15587.000	1586.100
64.000	15557.000	1587.770
80.000	15500.000	1589.300
64.000	15447.000	1590.830
65.000	15410.000	1592.490
63.000	15359.000	1594.030
64.000	15329.000	1595.430
64.000	15281.000	1596.840
63.000	15259.000	1598.250
64.000	15264.000	1599.650
65.000	15249.000	1600.930
63.000	15266.000	1602.460
64.000	15289.000	1603.740
65.000	15328.000	1606.170
79.000	15381.000	1608.090
65.000	15439.000	1609.240
63.000	15477.000	1610.260
64.000	15481.000	1611.030
64.000	15519.000	1611.920
64.000	15570.000	1612.820
64.000	15606.000	1613.460
64.000	15613.000	1613.460
64.000	15537.000	1611.790
64.000	15469.000	1610.390
64.000	15405.000	1608.850
64.000	15351.000	1607.450
80.000	15298.000	1605.660
64.000	15251.000	1604.000
64.000	15211.000	1602.080
64.000	15185.000	1600.160
64.000	15173.000	1598.120
64.000	15185.000	1595.950
64.000	15215.000	1593.770
64.000	15260.000	1588.790
63.000	15320.000	1585.980
65.000	15384.000	1582.910
64.000	15440.000	1580.100
63.000	15499.000	1577.160
81.000	15556.000	1574.220
63.000	15607.000	1571.150
64.000	15648.000	1568.210
64.000	15671.000	1565.270
64.000	15639.000	1562.330
65.000	15599.000	1559.390
63.000	15510.000	1556.450
64.000	15393.000	1553.380
64.000	15254.000	1550.570
64.000	15099.000	1547.760
64.000	14945.000	1545.200
64.000	14791.000	1542.900
80.000	14642.000	1540.480
64.000	14489.000	1538.170
64.000	14347.000	1536.260
64.000	14230.000	1534.720
64.000	14124.000	1533.190
64.000	14026.000	1532.040
64.000	13939.000	1530.890
64.000	13886.000	1530.120
63.000	13834.000	1529.360
64.000	13767.000	1528.840
64.000	13707.000	1528.330
65.000	13661.000	1528.080
79.000	13627.000	1528.080
64.000	13600.000	1527.950
65.000	13583.000	1528.080
63.000	13587.000	1528.210
65.000	13591.000	1528.330
63.000	13614.000	1528.460
64.000	13646.000	1528.840
64.000	13673.000	1529.100
64.000	13696.000	1529.360
64.000	13732.000	1529.610
64.000	13772.000	1529.990
64.000	13795.000	1530.380
80.000	13817.000	1530.510
64.000	13824.000	1530.760
64.000	13846.000	1531.020
64.000	13853.000	1531.400
64.000	13856.000	1531.910
64.000	13864.000	1532.170
64.000	13862.000	1532.300
64.000	13865.000	1532.680
64.000	13875.000	1532.930
63.000	13883.000	1533.450
64.000	13883.000	1533.700
64.000	13888.000	1534.080
81.000	13889.000	1534.340
63.000	13867.000	1534.720
64.000	13849.000	1534.850
64.000	13818.000	1535.230
64.000	13789.000	1535.490
64.000	13764.000	1535.870
65.000	13731.000	1536.130
63.000	13693.000	1536.390
64.000	13669.000	1536.770
64.000	13637.000	1537.020
64.000	13604.000	1537.280
64.000	13567.000	1537.540
80.000	13531.000	1537.660
64.000	13496.000	1537.920
63.000	13460.000	1538.170
65.000	13427.000	1538.300
64.000	13391.000	1538.690
64.000	13357.000	1538.940
64.000	13323.000	1539.070
64.000	13284.000	1539.200
63.000	13246.000	1539.450
65.000	13205.000	1539.580
63.000	13167.000	1539.710
65.000	13140.000	1539.840
79.000	13099.000	1539.840
64.000	13063.000	1539.960
64.000	13030.000	1540.090
64.000	12996.000	1540.090
64.000	12958.000	1540.220
64.000	12927.000	1540.220
64.000	12891.000	1540.350
64.000	12858.000	1540.480
64.000	12828.000	1540.480
64.000	12794.000	1540.600
64.000	12766.000	1540.600
64.000	12733.000	1540.600
80.000	12708.000	1540.600
64.000	12675.000	1540.730
64.000	12645.000	1540.860
64.000	12618.000	1540.860
63.000	12588.000	1540.860
65.000	12564.000	1540.860
63.000	12537.000	1540.860
65.000	12510.000	1540.990
64.000	12486.000	1540.990
64.000	12459.000	1541.110
64.000	12440.000	1540.990
64.000	12415.000	1541.110
79.000	12389.000	1541.110
65.000	12369.000	1541.110
63.000	12339.000	1541.240
65.000	12320.000	1541.110
63.000	12300.000	1541.240
64.000	12282.000	1541.110
64.000	12260.000	1541.240
64.000	12239.000	1541.240
64.000	12222.000	1541.240
64.000	12201.000	1541.240
64.000	12181.000	1541.370
64.000	12163.000	1541.370
80.000	12147.000	1541.370
64.000	12125.000	1541.370
64.000	12107.000	1541.370
64.000	12088.000	1541.370
64.000	12073.000	1541.370
64.000	12056.000	1541.500
63.000	12038.000	1541.370
64.000	12018.000	1541.370
65.000	12007.000	1541.370
63.000	11987.000	1541.500
65.000	11971.000	1541.630
63.000	11953.000	1541.500
81.000	11946.000	1541.500
64.000	11927.000	1541.630
64.000	11909.000	1541.500
63.000	11895.000	1541.630
64.000	11877.000	1541.500
64.000	11869.000	1541.630
64.000	11857.000	1541.630
64.000	11832.000	1541.750
64.000	11822.000	1541.630
64.000	11804.000	1541.630
64.000	11800.000	1541.630
64.000	11789.000	1541.630
80.000	11769.000	1541.630
65.000	11762.000	1541.630
63.000	11750.000	1541.750
63.000	11740.000	1541.750
65.000	11727.000	1541.750
64.000	11712.000	1541.750
64.000	11700.000	1541.750
64.000	11695.000	1541.750
64.000	11681.000	1541.750
64.000	11669.000	1541.750
63.000	11661.000	1541.750
64.000	11647.000	1541.630
80.000	11636.000	1541.750
64.000	11640.000	1541.880
64.000	11639.000	1542.010
64.000	11642.000	1541.750
63.000	11643.000	1541.880
65.000	11643.000	1541.880
64.000	11644.000	1541.880
64.000	11642.000	1541.880
64.000	11639.000	1541.880
63.000	11643.000	1542.010
65.000	11640.000	1541.880
64.000	11645.000	1541.880
80.000	11645.000	1541.880
63.000	11648.000	1541.880
65.000	11642.000	1541.880
63.000	11643.000	1541.880
64.000	11643.000	1541.880
64.000	11641.000	1542.010
64.000	11645.000	1542.010
64.000	11641.000	1541.880
64.000	11647.000	1541.880
64.000	11641.000	1541.880
64.000	11644.000	1542.140
65.000	11645.000	1542.010
79.000	11641.000	1541.880
64.000	11641.000	1541.880
64.000	11644.000	1542.010
64.000	11642.000	1542.010
64.000	11644.000	1542.010
64.000	11645.000	1542.140
64.000	11647.000	1542.010
64.000	11642.000	1542.010
65.000	11647.000	1542.010
63.000	11644.000	1542.010
64.000	11642.000	1542.010
64.000	11642.000	1542.010
80.000	11649.000	1542.010
64.000	11645.000	1542.010
64.000	11640.000	1542.140
64.000	11645.000	1542.010
64.000	11643.000	1542.140
64.000	11643.000	1542.010
64.000	11643.000	1542.140
63.000	11641.000	1542.010
65.000	11642.000	1542.140
63.000	11646.000	1542.010
65.000	11641.000	1542.140
64.000	11643.000	1542.010
80.000	11646.000	1542.010
63.000	11644.000	1542.010
64.000	11644.000	1542.010
64.000	11651.000	1542.010
64.000	11647.000	1542.010
64.000	11647.000	1542.140
64.000	11645.000	1542.140
64.000	11645.000	1542.010
64.000	11648.000	1542.010
64.000	11644.000	1542.140
63.000	11643.000	1542.140
65.000	11644.000	1542.010
79.000	11646.000	1542.010
64.000	11646.000	1542.140
65.000	11639.000	1542.010
64.000	11646.000	1542.140
63.000	11643.000	1542.140
64.000	11644.000	1542.140
65.000	11641.000	1542.140
63.000	11647.000	1542.010
64.000	11645.000	1542.010
64.000	11648.000	1542.010
64.000	11643.000	1542.010
64.000	11643.000	1542.010
81.000	11649.000	1542.260
63.000	11643.000	1542.010
65.000	11645.000	1542.140
63.000	11645.000	1542.010
64.000	11640.000	1542.010
64.000	11639.000	1542.140
64.000	11646.000	1542.140
64.000	11640.000	1542.140
64.000	11652.000	1542.140
64.000	11636.000	1542.140
64.000	11644.000	1542.140
63.000	11640.000	1542.010
81.000	11640.000	1541.880
64.000	11640.000	1542.140
63.000	11645.000	1542.010
65.000	11643.000	1542.140
64.000	11640.000	1542.010
63.000	11647.000	1542.140
64.000	11645.000	1542.010
65.000	11640.000	1542.140
64.000	11644.000	1542.010
64.000	11644.000	1542.140
63.000	11637.000	1542.140
65.000	11644.000	1542.010
79.000	11648.000	1542.140
65.000	11661.000	1542.140
63.000	11668.000	1542.140
64.000	11678.000	1542.010
64.000	11689.000	1542.140
65.000	11703.000	1542.140
63.000	11711.000	1542.010
64.000	11723.000	1542.140
64.000	11736.000	1542.140
64.000	11747.000	1542.140
64.000	11758.000	1542.010
64.000	11775.000	1542.140
80.000	11778.000	1542.010
64.000	11798.000	1542.140
63.000	11808.000	1542.140
65.000	11822.000	1542.140
63.000	11839.000	1542.260
65.000	11844.000	1542.140
63.000	11863.000	1542.010
65.000	11876.000	1542.140
63.000	11894.000	1542.140
65.000	11908.000	1542.010
63.000	11919.000	1542.010
64.000	11933.000	1542.140
80.000	11954.000	1542.010
64.000	11970.000	1542.140
64.000	11981.000	1542.260
64.000	11996.000	1542.140
64.000	12011.000	1542.140
64.000	12032.000	1542.140
65.000	12051.000	1542.140
63.000	12065.000	1542.140
64.000	12085.000	1542.140
63.000	12100.000	1542.140
65.000	12117.000	1542.010
63.000	12139.000	1542.140
80.000	12156.000	1542.010
64.000	12171.000	1542.140
65.000	12191.000	1542.010
63.000	12210.000	1542.010
65.000	12230.000	1542.260
64.000	12249.000	1542.140
64.000	12269.000	1542.140
64.000	12292.000	1542.010
64.000	12308.000	1542.140
63.000	12334.000	1542.140
65.000	12354.000	1542.260
63.000	12372.000	1542.140
81.000	12400.000	1542.140
63.000	12418.000	1542.140
64.000	12444.000	1542.140
64.000	12468.000	1542.140
64.000	12490.000	1542.010
64.000	12519.000	1542.140
65.000	12542.000	1542.140
62.000	12570.000	1542.140
65.000	12594.000	1542.140
64.000	12621.000	1542.010
64.000	12649.000	1542.140
64.000	12676.000	1542.140
80.000	12702.000	1542.140
64.000	12731.000	1542.140
64.000	12764.000	1542.260
63.000	12790.000	1542.260
64.000	12826.000	1542.140
65.000	12854.000	1542.140
64.000	12885.000	1542.140
63.000	12916.000	1542.140
64.000	12947.000	1542.140
64.000	12982.000	1542.140
64.000	13011.000	1542.260
64.000	13045.000	1542.140
80.000	13081.000	1542.260
64.000	13118.000	1542.140
64.000	13159.000	1542.260
63.000	13196.000	1542.260
65.000	13233.000	1542.260
64.000	13273.000	1542.390
64.000	13311.000	1542.520
64.000	13345.000	1542.650
63.000	13387.000	1542.780
64.000	13434.000	1542.780
65.000	13480.000	1543.030
64.000	13515.000	1543.290
80.000	13569.000	1543.540
64.000	13616.000	1543.540
64.000	13673.000	1543.930
64.000	13730.000	1544.180
63.000	13781.000	1544.440
65.000	13844.000	1544.690
64.000	13917.000	1545.080
63.000	13974.000	1545.460
64.000	14038.000	1545.840
64.000	14102.000	1546.230
64.000	14156.000	1546.480
64.000	14210.000	1546.990
80.000	14262.000	1547.380
65.000	14288.000	1547.890
63.000	14306.000	1548.270
64.000	14315.000	1548.910
64.000	14313.000	1549.420
64.000	14304.000	1549.930
64.000	14292.000	1550.440
64.000	14283.000	1551.210
64.000	14272.000	1551.720
64.000	14266.000	1552.230
64.000	14255.000	1552.750
64.000	14248.000	1553.510
80.000	14254.000	1554.150
63.000	14250.000	1554.790
64.000	14253.000	1555.560
64.000	14254.000	1556.450
64.000	14259.000	1557.350
64.000	14264.000	1557.990
65.000	14272.000	1559.010
63.000	14283.000	1559.650
64.000	14289.000	1560.540
64.000	14296.000	1561.560
64.000	14309.000	1562.460
64.000	14335.000	1563.350
81.000	14368.000	1564.500
63.000	14406.000	1565.400
64.000	14472.000	1566.420
64.000	14554.000	1567.700
64.000	14652.000	1568.720
64.000	14762.000	1570.000
64.000	14875.000	1571.150
64.000	15009.000	1572.300
64.000	15134.000	1573.710
63.000	15269.000	1574.860
65.000	15384.000	1576.130
64.000	15468.000	1577.410
79.000	15550.000	1578.950
65.000	15592.000	1580.100
63.000	15614.000	1581.380
64.000	15618.000	1582.780
64.000	15608.000	1584.060
65.000	15591.000	1585.340
63.000	15593.000	1586.870
64.000	15571.000	1585.850
64.000	15565.000	1587.380
64.000	15515.000	1589.170
65.000	15470.000	1590.580
63.000	15421.000	1592.240
80.000	15383.000	1593.770
64.000	15331.000	1595.180
64.000	15298.000	1596.710
64.000	15255.000	1598.120
64.000	15247.000	1599.520
64.000	15251.000	1600.930
64.000	15246.000	1602.080
63.000	15270.000	1603.610
65.000	15304.000	1605.150
63.000	15351.000	1607.700
64.000	15398.000	1609.240
65.000	15471.000	1610.520
80.000	15485.000	1611.540
63.000	15494.000	1612.430
65.000	15542.000	1613.200
64.000	15572.000	1613.970
63.000	15628.000	1614.860
64.000	15579.000	1613.710
64.000	15505.000	1612.310
64.000	15433.000	1610.770
64.000	15374.000	1609.240
64.000	15320.000	1607.700
64.000	15266.000	1606.040
64.000	15224.000	1604.130
80.000	15188.000	1602.210
64.000	15162.000	1600.290
64.000	15156.000	1598.120
64.000	15172.000	1595.950
63.000	15207.000	1592.880
65.000	15253.000	1588.530
64.000	15318.000	1585.590
63.000	15386.000	1582.650
65.000	15442.000	1579.840
64.000	15505.000	1576.770
64.000	15569.000	1573.830
64.000	15611.000	1570.770
79.000	15645.000	1567.700
64.000	15643.000	1564.760
64.000	15616.000	1561.820
64.000	15557.000	1559.010
64.000	15458.000	1555.940
64.000	15340.000	1553.000
64.000	15199.000	1550.190
64.000	15055.000	1547.500
64.000	14896.000	1544.820
64.000	14737.000	1542.520
64.000	14587.000	1540.220
64.000	14440.000	1538.170
80.000	14308.000	1536.260
64.000	14189.000	1534.850
64.000	14089.000	1533.320
64.000	13991.000	1532.420
64.000	13902.000	1531.270
64.000	13865.000	1530.510
64.000	13805.000	1529.740
64.000	13744.000	1529.230
64.000	13691.000	1528.970
64.000	13651.000	1528.720
64.000	13620.000	1528.590
64.000	13593.000	1528.590
80.000	13583.000	1528.720
63.000	13583.000	1528.840
64.000	13594.000	1528.970
64.000	13617.000	1529.230
64.000	13653.000	1529.480
64.000	13672.000	1529.740
64.000	13709.000	1529.990
65.000	13751.000	1530.120
63.000	13782.000	1530.630
64.000	13797.000	1530.890
64.000	13823.000	1531.140
64.000	13841.000	1531.400
80.000	13855.000	1531.910
63.000	13844.000	1532.170
64.000	13854.000	1532.420
64.000	13860.000	1532.810
65.000	13865.000	1533.190
64.000	13873.000	1533.450
64.000	13881.000	1533.830
64.000	13888.000	1534.080
64.000	13900.000	1534.470
63.000	13892.000	1534.720
65.000	13884.000	1535.110
64.000	13859.000	1535.490
80.000	13838.000	1535.750
63.000	13808.000	1536.000
64.000	13786.000	1536.390
64.000	13758.000	1536.640
64.000	13731.000	1537.020
65.000	13693.000	1537.280
64.000	13663.000	1537.410
63.000	13631.000	1537.790
64.000	13593.000	1538.050
64.000	13558.000	1538.300
64.000	13525.000	1538.560
64.000	13488.000	1538.810
80.000	13455.000	1539.070
63.000	13415.000	1539.200
64.000	13383.000	1539.450
65.000	13353.000	1539.710
63.000	13320.000	1539.710
64.000	13281.000	1539.960
65.000	13236.000	1540.090
64.000	13193.000	1540.220
64.000	13160.000	1540.350
64.000	13127.000	1540.600
64.000	13082.000	1540.600
64.000	13049.000	1540.860
80.000	13012.000	1540.730
63.000	12979.000	1540.990
64.000	12945.000	1540.990
65.000	12913.000	1541.110
63.000	12878.000	1541.110
64.000	12842.000	1541.110
64.000	12812.000	1541.240
64.000	12780.000	1541.240
64.000	12750.000	1541.240
64.000	12722.000	1541.370
64.000	12690.000	1541.370
64.000	12661.000	1541.370
80.000	12634.000	1541.500
63.000	12604.000	1541.370
65.000	12577.000	1541.500
64.000	12549.000	1541.630
63.000	12525.000	1541.630
65.000	12501.000	1541.630
64.000	12476.000	1541.500
64.000	12447.000	1541.630
63.000	12425.000	1541.750
64.000	12401.000	1541.880
64.000	12380.000	1541.750
64.000	12355.000	1541.630
80.000	12332.000	1541.880
64.000	12312.000	1541.750
64.000	12288.000	1541.880
64.000	12274.000	1541.880
64.000	12250.000	1541.750
64.000	12231.000	1541.880
64.000	12210.000	1542.010
64.000	12190.000	1541.880
63.000	12169.000	1542.010
65.000	12154.000	1542.010
63.000	12133.000	1542.010
65.000	12115.000	1542.010
79.000	12101.000	1542.140
64.000	12077.000	1542.140
65.000	12060.000	1542.140
63.000	12044.000	1542.140
65.000	12027.000	1542.140
64.000	12009.000	1542.140
63.000	11991.000	1542.140
64.000	11975.000	1542.140
64.000	11967.000	1542.260
65.000	11946.000	1542.140
64.000	11931.000	1542.260
63.000	11915.000	1542.260
80.000	11899.000	1542.140
64.000	11891.000	1542.260
64.000	11873.000	1542.390
64.000	11861.000	1542.260
64.000	11847.000	1542.260
63.000	11834.000	1542.260
65.000	11815.000	1542.260
63.000	11808.000	1542.260
65.000	11793.000	1542.260
63.000	11784.000	1542.390
65.000	11770.000	1542.260
63.000	11752.000	1542.260
80.000	11740.000	1542.390
65.000	11729.000	1542.260
63.000	11719.000	1542.390
64.000	11703.000	1542.520
64.000	11698.000	1542.390
65.000	11679.000	1542.260
64.000	11673.000	1542.520
63.000	11662.000	1542.390
64.000	11657.000	1542.520
65.000	11642.000	1542.390
63.000	11636.000	1542.520
64.000	11641.000	1542.520
80.000	11640.000	1542.520
64.000	11637.000	1542.650
64.000	11640.000	1542.520
64.000	11641.000	1542.520
64.000	11643.000	1542.520
64.000	11641.000	1542.520
64.000	11641.000	1542.520
64.000	11637.000	1542.650
64.000	11643.000	1542.650
63.000	11643.000	1542.520
65.000	11642.000	1542.520
64.000	11635.000	1542.520
79.000	11642.000	1542.520
65.000	11635.000	1542.650
63.000	11644.000	1542.520
65.000	11640.000	1542.650
63.000	11641.000	1542.650
64.000	11637.000	1542.650
64.000	11643.000	1542.650
65.000	11633.000	1542.520
63.000	11640.000	1542.650
64.000	11641.000	1542.520
64.000	11643.000	1542.650
65.000	11641.000	1542.650
79.000	11643.000	1542.650
64.000	11643.000	1542.650
63.000	11642.000	1542.650
64.000	11642.000	1542.650
65.000	11640.000	1542.650
64.000	11644.000	1542.780
64.000	11643.000	1542.900
64.000	11642.000	1542.650
64.000	11643.000	1542.780
64.000	11643.000	1542.650
63.000	11640.000	1542.780
65.000	11639.000	1542.780
80.000	11642.000	1542.900
64.000	11642.000	1542.780
64.000	11642.000	1542.780
64.000	11645.000	1542.780
63.000	11645.000	1542.780
65.000	11641.000	1542.780
63.000	11642.000	1542.780
64.000	11645.000	1542.780
64.000	11641.000	1542.780
65.000	11650.000	1542.780
63.000	11647.000	1542.780
64.000	11644.000	1542.780
80.000	11641.000	1542.900
64.000	11643.000	1542.780
64.000	11640.000	1542.780
64.000	11643.000	1542.780
64.000	11642.000	1542.780
64.000	11646.000	1542.780
64.000	11641.000	1542.780
64.000	11645.000	1542.780
64.000	11643.000	1542.780
63.000	11640.000	1542.780
65.000	11640.000	1542.900
64.000	11642.000	1542.780
80.000	11645.000	1542.780
64.000	11643.000	1542.900
63.000	11642.000	1542.900
64.000	11635.000	1542.780
64.000	11643.000	1542.780
64.000	11639.000	1542.780
64.000	11640.000	1542.780
65.000	11643.000	1542.780
63.000	11639.000	1542.780
65.000	11638.000	1542.780
64.000	11641.000	1542.650
63.000	11643.000	1542.780
80.000	11641.000	1542.900
64.000	11637.000	1542.900
64.000	11636.000	1542.780
64.000	11640.000	1542.780
64.000	11643.000	1542.900
64.000	11641.000	1542.900
64.000	11640.000	1542.900
63.000	11639.000	1542.900
65.000	11640.000	1542.780
64.000	11641.000	1542.780
64.000	11635.000	1542.780
64.000	11645.000	1542.780
79.000	11638.000	1542.780
65.000	11638.000	1542.900
64.000	11636.000	1542.780
63.000	11641.000	1542.780
65.000	11641.000	1542.900
64.000	11640.000	1542.780
63.000	11636.000	1542.900
64.000	11633.000	1542.780
64.000	11640.000	1542.900
65.000	11637.000	1542.900
64.000	11652.000	1542.780
63.000	11655.000	1542.780
81.000	11670.000	1542.900
63.000	11686.000	1542.900
64.000	11692.000	1542.900
64.000	11703.000	1542.900
64.000	11714.000	1542.780
64.000	11728.000	1542.900
64.000	11736.000	1542.900
64.000	11746.000	1542.900
64.000	11761.000	1542.900
64.000	11774.000	1542.900
63.000	11787.000	1542.900
65.000	11796.000	1542.900
80.000	11813.000	1542.900
64.000	11828.000	1542.900
64.000	11839.000	1542.900
64.000	11851.000	1542.900
63.000	11864.000	1542.900
65.000	11887.000	1542.780
64.000	11892.000	1542.900
64.000	11907.000	1542.900
63.000	11924.000	1542.900
65.000	11944.000	1542.900
64.000	11964.000	1542.900
64.000	11969.000	1542.900
79.000	11986.000	1542.900
64.000	12000.000	1542.900
64.000	12020.000	1542.900
64.000	12035.000	1542.900
64.000	12051.000	1542.780
64.000	12070.000	1542.900
64.000	12087.000	1542.780
64.000	12107.000	1542.900
64.000	12127.000	1542.780
64.000	12142.000	1542.900
65.000	12161.000	1542.900
63.000	12177.000	1542.900
80.000	12198.000	1542.900
64.000	12217.000	1542.900
64.000	12235.000	1542.900
64.000	12255.000	1542.900
63.000	12274.000	1542.900
65.000	12298.000	1542.900
64.000	12315.000	1542.900
63.000	12338.000	1542.900
65.000	12360.000	1542.900
63.000	12382.000	1542.900
64.000	12406.000	1542.900
64.000	12430.000	1542.900
80.000	12453.000	1542.900
65.000	12476.000	1542.900
63.000	12498.000	1542.900
65.000	12523.000	1542.900
63.000	12553.000	1542.900
64.000	12578.000	1542.900
64.000	12602.000	1542.900
64.000	12628.000	1542.900
64.000	12653.000	1542.900
64.000	12684.000	1542.900
64.000	12712.000	1543.030
64.000	12738.000	1542.900
79.000	12767.000	1542.900
65.000	12803.000	1542.900
64.000	12830.000	1542.900
64.000	12860.000	1542.900
64.000	12891.000	1542.900
64.000	12923.000	1542.900
64.000	12956.000	1542.900
64.000	12989.000	1542.900
64.000	13022.000	1543.030
63.000	13058.000	1542.900
65.000	13091.000	1542.900
64.000	13125.000	1543.030
79.000	13167.000	1542.900
64.000	13204.000	1543.030
65.000	13246.000	1543.160
63.000	13288.000	1543.160
65.000	13321.000	1543.290
63.000	13360.000	1543.540
64.000	13402.000	1543.540
64.000	13442.000	1543.670
64.000	13492.000	1543.930
64.000	13536.000	1544.050
64.000	13585.000	1544.180
64.000	13636.000	1544.570
80.000	13688.000	1544.820
64.000	13748.000	1545.080
64.000	13798.000	1545.200
64.000	13866.000	1545.590
63.000	13930.000	1545.840
65.000	13996.000	1546.350
64.000	14060.000	1546.740
63.000	14128.000	1546.870
64.000	14186.000	1547.500
65.000	14228.000	1547.890
63.000	14275.000	1548.270
65.000	14296.000	1548.660
79.000	14317.000	1549.290
65.000	14318.000	1549.810
63.000	14311.000	1550.440
64.000	14303.000	1550.830
64.000	14295.000	1551.470
64.000	14285.000	1551.980
64.000	14273.000	1552.620
64.000	14269.000	1553.130
64.000	14257.000	1553.900
64.000	14244.000	1554.530
64.000	14250.000	1555.170
64.000	14253.000	1555.940
80.000	14252.000	1556.710
64.000	14256.000	1557.470
64.000	14267.000	1558.240
64.000	14270.000	1559.010
64.000	14277.000	1559.900
64.000	14279.000	1560.670
64.000	14285.000	1561.690
64.000	14304.000	1562.590
64.000	14325.000	1563.610
63.000	14350.000	1564.500
65.000	14382.000	1565.530
63.000	14423.000	1566.550
80.000	14495.000	1567.700
64.000	14586.000	1568.850
65.000	14681.000	1569.870
64.000	14799.000	1571.020
63.000	14915.000	1572.430
64.000	15049.000	1573.580
64.000	15180.000	1574.730
64.000	15308.000	1576.010
64.000	15406.000	1577.410
64.000	15494.000	1578.820
64.000	15564.000	1580.100
64.000	15606.000	1581.380
80.000	15615.000	1582.650
64.000	15625.000	1583.800
64.000	15596.000	1585.340
63.000	15590.000	1586.870
65.000	15575.000	1585.850
63.000	15543.000	1587.130
65.000	15536.000	1588.660
64.000	15484.000	1590.320
64.000	15435.000	1591.980
64.000	15395.000	1593.390
64.000	15340.000	1595.050
63.000	15312.000	1596.580
81.000	15263.000	1597.990
64.000	15231.000	1599.400
64.000	15232.000	1600.800
63.000	15229.000	1602.210
64.000	15244.000	1603.490
64.000	15271.000	1604.890
64.000	15299.000	1606.810
64.000	15358.000	1609.110
64.000	15410.000	1610.520
64.000	15452.000	1611.670
65.000	15471.000	1612.690
63.000	15486.000	1613.580
80.000	15544.000	1614.350
63.000	15590.000	1615.250
65.000	15648.000	1615.760
64.000	15569.000	1614.480
64.000	15492.000	1612.940
63.000	15423.000	1611.540
65.000	15363.000	1610.130
64.000	15307.000	1608.340
64.000	15258.000	1606.680
63.000	15216.000	1604.890
65.000	15184.000	1602.850
64.000	15158.000	1600.930
80.000	15145.000	1598.760
63.000	15170.000	1596.710
64.000	15208.000	1592.240
64.000	15255.000	1588.920
64.000	15312.000	1586.100
64.000	15381.000	1583.160
64.000	15442.000	1580.100
64.000	15509.000	1577.290
64.000	15565.000	1574.350
64.000	15603.000	1571.150
64.000	15629.000	1568.210
64.000	15635.000	1565.270
80.000	15611.000	1562.330
64.000	15551.000	1559.260
64.000	15451.000	1556.320
64.000	15336.000	1553.260
64.000	15194.000	1550.440
64.000	15052.000	1547.760
64.000	14891.000	1545.330
64.000	14740.000	1542.780
64.000	14589.000	1540.600
63.000	14435.000	1538.560
65.000	14308.000	1536.640
64.000	14192.000	1535.110
80.000	14080.000	1533.830
64.000	13995.000	1532.810
64.000	13937.000	1531.780
64.000	13866.000	1530.890
64.000	13795.000	1530.380
64.000	13735.000	1529.870
63.000	13684.000	1529.610
64.000	13642.000	1529.480
64.000	13612.000	1529.230
64.000	13591.000	1529.100
64.000	13583.000	1529.360
64.000	13580.000	1529.480
81.000	13590.000	1529.610
63.000	13621.000	1529.870
64.000	13651.000	1530.120
64.000	13680.000	1530.380
64.000	13709.000	1530.630
64.000	13749.000	1531.020
64.000	13781.000	1531.140
64.000	13798.000	1531.660
64.000	13812.000	1531.910
64.000	13827.000	1532.170
63.000	13839.000	1532.550
64.000	13845.000	1532.930
81.000	13851.000	1533.190
64.000	13851.000	1533.450
64.000	13866.000	1533.830
63.000	13864.000	1534.210
64.000	13874.000	1534.600
65.000	13877.000	1534.720
63.000	13881.000	1535.230
65.000	13878.000	1535.490
63.000	13867.000	1535.750
64.000	13855.000	1536.000
64.000	13827.000	1536.510
64.000	13806.000	1536.640
80.000	13771.000	1537.020
64.000	13742.000	1537.410
64.000	13712.000	1537.540
64.000	13686.000	1538.050
64.000	13648.000	1538.300
64.000	13620.000	1538.430
64.000	13579.000	1538.690
64.000	13541.000	1538.940
64.000	13511.000	1539.320
64.000	13477.000	1539.450
64.000	13441.000	1539.840
64.000	13401.000	1539.960
80.000	13371.000	1540.090
64.000	13335.000	1540.350
64.000	13295.000	1540.480
63.000	13261.000	1540.600
64.000	13224.000	1540.860
65.000	13187.000	1540.860
63.000	13146.000	1541.110
64.000	13114.000	1541.110
64.000	13074.000	1541.240
64.000	13041.000	1541.370
64.000	13005.000	1541.500
64.000	12972.000	1541.500
80.000	12938.000	1541.750
65.000	12900.000	1541.750
63.000	12867.000	1541.630
64.000	12831.000	1541.880
64.000	12803.000	1541.880
64.000	12768.000	1542.010
64.000	12737.000	1542.010
64.000	12711.000	1542.010
64.000	12680.000	1542.140
64.000	12647.000	1542.140
64.000	12624.000	1542.260
63.000	12592.000	1542.260
81.000	12565.000	1542.260
64.000	12544.000	1542.140
64.000	12515.000	1542.260
64.000	12488.000	1542.260
63.000	12463.000	1542.520
64.000	12441.000	1542.390
64.000	12414.000	1542.390
65.000	12390.000	1542.390
63.000	12369.000	1542.520
64.000	12347.000	1542.390
65.000	12323.000	1542.520
63.000	12302.000	1542.650
80.000	12280.000	1542.650
64.000	12259.000	1542.520
64.000	12243.000	1542.520
64.000	12222.000	1542.650
64.000	12206.000	1542.520
64.000	12182.000	1542.520
63.000	12161.000	1542.650
65.000	12141.000	1542.780
64.000	12122.000	1542.650
64.000	12101.000	1542.780
63.000	12085.000	1542.650
65.000	12063.000	1542.780
80.000	12051.000	1542.780
63.000	12027.000	1542.780
65.000	12008.000	1542.900
63.000	11991.000	1542.900
64.000	11979.000	1542.780
64.000	11959.000	1542.780
65.000	11947.000	1542.780
63.000	11928.000	1542.900
64.000	11910.000	1542.900
65.000	11897.000	1542.900
64.000	11885.000	1542.900
64.000	11865.000	1543.030
79.000	11854.000	1543.030
64.000	11844.000	1542.900
64.000	11826.000	1542.900
64.000	11811.000	1543.030
64.000	11796.000	1543.030
64.000	11785.000	1543.030
64.000	11775.000	1543.030
64.000	11754.000	1543.030
64.000	11740.000	1543.030
64.000	11730.000	1543.030
64.000	11721.000	1543.030
64.000	11706.000	1543.160
80.000	11689.000	1543.030
64.000	11686.000	1543.160
64.000	11670.000	1543.160
64.000	11657.000	1543.160
64.000	11646.000	1543.160
63.000	11635.000	1543.160
64.000	11616.000	1543.160
65.000	11608.000	1543.160
63.000	11604.000	1543.160
64.000	11611.000	1543.160
65.000	11608.000	1543.160
64.000	11609.000	1543.160
80.000	11602.000	1543.290
63.000	11614.000	1543.290
64.000	11609.000	1543.290
64.000	11608.000	1543.290
64.000	11611.000	1543.290
64.000	11607.000	1543.290
64.000	11604.000	1543.290
64.000	11611.000	1543.290
64.000	11609.000	1543.290
64.000	11602.000	1543.290
64.000	11614.000	1543.290
64.000	11609.000	1543.290
79.000	11603.000	1543.290
65.000	11607.000	1543.410
64.000	11605.000	1543.290
64.000	11608.000	1543.290
63.000	11612.000	1543.410
64.000	11608.000	1543.290
64.000	11601.000	1543.410
64.000	11609.000	1543.290
64.000	11612.000	1543.540
64.000	11601.000	1543.410
64.000	11607.000	1543.290
64.000	11605.000	1543.410
80.000	11606.000	1543.410
64.000	11599.000	1543.290
64.000	11607.000	1543.410
64.000	11607.000	1543.410
64.000	11610.000	1543.410
64.000	11606.000	1543.410
64.000	11609.000	1543.410
64.000	11611.000	1543.410
64.000	11612.000	1543.540
64.000	11608.000	1543.540
64.000	11607.000	1543.540
63.000	11609.000	1543.290
81.000	11605.000	1543.410
64.000	11609.000	1543.410
64.000	11605.000	1543.410
63.000	11605.000	1543.540
65.000	11610.000	1543.540
63.000	11603.000	1543.540
64.000	11608.000	1543.410
64.000	11606.000	1543.540
65.000	11608.000	1543.410
63.000	11603.000	1543.410
64.000	11609.000	1543.540
65.000	11611.000	1543.410
79.000	11606.000	1543.540
65.000	11612.000	1543.540
64.000	11609.000	1543.540
63.000	11608.000	1543.410
64.000	11608.000	1543.540
64.000	11606.000	1543.540
64.000	11607.000	1543.540
64.000	11607.000	1543.540
64.000	11611.000	1543.540
64.000	11610.000	1543.540
64.000	11606.000	1543.670
64.000	11610.000	1543.670
80.000	11610.000	1543.540
63.000	11609.000	1543.670
66.000	11606.000	1543.540
63.000	11604.000	1543.540
64.000	11613.000	1543.540
63.000	11606.000	1543.670
64.000	11610.000	1543.540
64.000	11612.000	1543.540
65.000	11612.000	1543.540
63.000	11611.000	1543.540
65.000	11604.000	1543.670
63.000	11614.000	1543.670
81.000	11609.000	1543.540
63.000	11612.000	1543.540
65.000	11610.000	1543.540
63.000	11607.000	1543.670
64.000	11611.000	1543.540
64.000	11611.000	1543.670
64.000	11606.000	1543.540
64.000	11610.000	1543.540
64.000	11609.000	1543.540
63.000	11607.000	1543.540
64.000	11604.000	1543.670
65.000	11605.000	1543.540
80.000	11609.000	1543.540
64.000	11612.000	1543.540
63.000	11609.000	1543.670
65.000	11613.000	1543.540
64.000	11609.000	1543.670
64.000	11610.000	1543.670
63.000	11613.000	1543.540
65.000	11617.000	1543.670
63.000	11621.000	1543.540
64.000	11632.000	1543.670
65.000	11649.000	1543.540
63.000	11658.000	1543.540
80.000	11670.000	1543.540
64.000	11685.000	1543.540
64.000	11693.000	1543.670
64.000	11697.000	1543.540
64.000	11718.000	1543.670
63.000	11727.000	1543.670
65.000	11738.000	1543.540
64.000	11747.000	1543.670
64.000	11765.000	1543.540
64.000	11769.000	1543.670
64.000	11790.000	1543.670
64.000	11807.000	1543.540
80.000	11817.000	1543.670
63.000	11832.000	1543.670
65.000	11842.000	1543.670
63.000	11856.000	1543.540
65.000	11876.000	1543.540
64.000	11888.000	1543.540
64.000	11901.000	1543.540
63.000	11915.000	1543.540
64.000	11934.000	1543.670
64.000	11951.000	1543.670
64.000	11962.000	1543.540
64.000	11986.000	1543.540
80.000	12001.000	1543.540
64.000	12016.000	1543.670
64.000	12033.000	1543.540
64.000	12049.000	1543.670
64.000	12067.000	1543.540
64.000	12084.000	1543.670
64.000	12102.000	1543.540
64.000	12124.000	1543.540
64.000	12146.000	1543.670
64.000	12165.000	1543.670
64.000	12180.000	1543.670
63.000	12197.000	1543.670
81.000	12221.000	1543.670
63.000	12237.000	1543.540
65.000	12253.000	1543.670
64.000	12273.000	1543.670
64.000	12299.000	1543.670
63.000	12323.000	1543.670
64.000	12340.000	1543.670
64.000	12365.000	1543.670
64.000	12388.000	1543.670
64.000	12413.000	1543.670
64.000	12434.000	1543.670
64.000	12457.000	1543.670
81.000	12486.000	1543.670
63.000	12511.000	1543.670
64.000	12538.000	1543.670
64.000	12561.000	1543.540
64.000	12586.000	1543.670
64.000	12614.000	1543.670
64.000	12642.000	1543.670
64.000	12671.000	1543.540
64.000	12696.000	1543.540
64.000	12728.000	1543.800
64.000	12758.000	1543.670
64.000	12785.000	1543.540
80.000	12820.000	1543.540
64.000	12848.000	1543.670
63.000	12881.000	1543.540
65.000	12913.000	1543.670
63.000	12948.000	1543.670
65.000	12982.000	1543.670
63.000	13018.000	1543.670
64.000	13046.000	1543.670
64.000	13078.000	1543.670
64.000	13118.000	1543.930
65.000	13153.000	1543.800
64.000	13195.000	1543.800
79.000	13235.000	1543.930
64.000	13275.000	1543.930
64.000	13315.000	1544.050
64.000	13354.000	1544.180
64.000	13397.000	1544.440
64.000	13433.000	1544.570
64.000	13483.000	1544.570
63.000	13525.000	1544.950
65.000	13579.000	1545.080
65.000	13636.000	1545.330
63.000	13690.000	1545.590
64.000	13749.000	1545.840
79.000	13805.000	1546.100
64.000	13869.000	1546.480
65.000	13937.000	1546.870
63.000	14004.000	1547.120
65.000	14070.000	1547.500
63.000	14129.000	1547.890
64.000	14191.000	1548.400
65.000	14234.000	1548.660
64.000	14278.000	1549.170
63.000	14300.000	1549.680
64.000	14311.000	1550.190
64.000	14313.000	1550.570
80.000	14316.000	1551.080
64.000	14303.000	1551.720
64.000	14289.000	1552.360
64.000	14284.000	1552.870
64.000	14272.000	1553.510
64.000	14261.000	1554.150
64.000	14251.000	1554.790
64.000	14249.000	1555.560
64.000	14249.000	1556.200
64.000	14247.000	1556.960
64.000	14253.000	1557.600
64.000	14257.000	1558.500
80.000	14268.000	1559.260
64.000	14274.000	1560.030
63.000	14275.000	1560.930
65.000	14282.000	1561.950
64.000	14297.000	1562.710
64.000	14308.000	1563.610
63.000	14332.000	1564.630
64.000	14356.000	1565.530
65.000	14396.000	1566.550
63.000	14451.000	1567.700
65.000	14524.000	1568.720
63.000	14616.000	1570.000
80.000	14722.000	1571.150
64.000	14839.000	1572.430
64.000	14961.000	1573.580
65.000	15100.000	1574.860
63.000	15226.000	1576.010
64.000	15342.000	1577.410
64.000	15432.000	1578.560
64.000	15516.000	1579.840
64.000	15581.000	1581.380
63.000	15608.000	1582.530
64.000	15614.000	1583.930
65.000	15604.000	1584.950
79.000	15583.000	1586.620
65.000	15586.000	1588.020
64.000	15559.000	1587.000
64.000	15547.000	1588.530
64.000	15515.000	1590.190
64.000	15455.000	1591.730
64.000	15416.000	1593.130
64.000	15377.000	1594.800
64.000	15321.000	1596.330
64.000	15292.000	1597.860
63.000	15247.000	1599.140
64.000	15235.000	1600.670
80.000	15241.000	1602.080
64.000	15227.000	1603.490
64.000	15262.000	1604.890
64.000	15278.000	1606.170
63.000	15332.000	1608.600
65.000	15376.000	1610.390
64.000	15431.000	1611.920
64.000	15476.000	1613.070
64.000	15485.000	1613.840
64.000	15525.000	1614.730
64.000	15566.000	1615.500
64.000	15614.000	1616.400
80.000	15626.000	1616.400
64.000	15544.000	1614.860
64.000	15468.000	1613.330
64.000	15403.000	1611.920
64.000	15344.000	1610.520
64.000	15293.000	1608.730
64.000	15245.000	1606.940
63.000	15203.000	1605.020
64.000	15170.000	1603.100
65.000	15147.000	1600.930
63.000	15150.000	1598.890
64.000	15174.000	1596.710
81.000	15215.000	1591.730
63.000	15267.000	1588.790
64.000	15332.000	1585.720
64.000	15392.000	1582.780
64.000	15452.000	1579.840
64.000	15512.000	1576.900
64.000	15561.000	1573.830
64.000	15605.000	1570.770
64.000	15617.000	1567.830
64.000	15616.000	1564.760
64.000	15586.000	1561.820
64.000	15508.000	1558.880
79.000	15406.000	1555.810
64.000	15278.000	1552.870
64.000	15146.000	1550.060
65.000	14991.000	1547.380
63.000	14834.000	1545.080
64.000	14683.000	1542.650
64.000	14533.000	1540.350
65.000	14382.000	1538.690
63.000	14256.000	1536.900
64.000	14144.000	1535.360
64.000	14044.000	1533.960
64.000	13959.000	1532.930
80.000	13906.000	1532.040
64.000	13835.000	1531.400
64.000	13766.000	1530.890
64.000	13711.000	1530.380
64.000	13664.000	1530.120
64.000	13625.000	1529.990
64.000	13606.000	1529.870
64.000	13582.000	1529.990
64.000	13582.000	1529.990
64.000	13581.000	1530.120
64.000	13600.000	1530.380
64.000	13636.000	1530.630
80.000	13663.000	1530.890
63.000	13683.000	1531.270
65.000	13720.000	1531.530
64.000	13755.000	1531.660
64.000	13772.000	1532.040
63.000	13798.000	1532.300
65.000	13817.000	1532.680
63.000	13827.000	1532.930
64.000	13841.000	1533.320
65.000	13839.000	1533.570
63.000	13844.000	1533.960
64.000	13856.000	1534.210
80.000	13859.000	1534.600
64.000	13865.000	1534.980
64.000	13875.000	1535.230
64.000	13882.000	1535.620
64.000	13886.000	1535.870
64.000	13879.000	1536.390
64.000	13859.000	1536.640
63.000	13848.000	1536.900
64.000	13811.000	1537.150
64.000	13793.000	1537.540
65.000	13763.000	1537.790
63.000	13739.000	1538.170
81.000	13705.000	1538.430
64.000	13674.000	1538.690
63.000	13641.000	1539.070
65.000	13607.000	1539.320
63.000	13576.000	1539.450
65.000	13538.000	1539.840
64.000	13498.000	1540.090
63.000	13462.000	1540.350
65.000	13429.000	1540.600
64.000	13396.000	1540.730
63.000	13358.000	1540.990
64.000	13328.000	1541.110
80.000	13290.000	1541.240
64.000	13244.000	1541.370
64.000	13205.000	1541.630
64.000	13166.000	1541.630
64.000	13135.000	1541.880
64.000	13098.000	1541.880
64.000	13055.000	1542.010
64.000	13024.000	1542.140
64.000	12988.000	1542.260
64.000	12953.000	1542.260
64.000	12918.000	1542.390
64.000	12890.000	1542.390
80.000	12857.000	1542.520
64.000	12822.000	1542.520
63.000	12788.000	1542.650
64.000	12756.000	1542.520
64.000	12729.000	1542.780
65.000	12697.000	1542.650
63.000	12668.000	1542.780
64.000	12639.000	1542.780
64.000	12609.000	1542.900
65.000	12582.000	1542.900
64.000	12551.000	1543.030
63.000	12530.000	1542.900
80.000	12499.000	1542.900
64.000	12478.000	1543.030
64.000	12451.000	1543.030
64.000	12424.000	1543.030
64.000	12401.000	1543.030
64.000	12381.000	1543.160
64.000	12361.000	1543.160
63.000	12334.000	1543.160
65.000	12308.000	1543.160
63.000	12293.000	1543.160
65.000	12268.000	1543.290
64.000	12248.000	1543.290
79.000	12227.000	1543.290
64.000	12205.000	1543.290
65.000	12184.000	1543.290
64.000	12169.000	1543.290
64.000	12146.000	1543.290
64.000	12121.000	1543.410
63.000	12108.000	1543.540
64.000	12088.000	1543.410
64.000	12062.000	1543.410
64.000	12049.000	1543.410
64.000	12029.000	1543.410
64.000	12015.000	1543.540
80.000	11993.000	1543.540
64.000	11982.000	1543.540
64.000	11964.000	1543.540
64.000	11946.000	1543.540
64.000	11932.000	1543.540
64.000	11913.000	1543.540
64.000	11899.000	1543.540
63.000	11884.000	1543.540
65.000	11868.000	1543.800
63.000	11857.000	1543.670
65.000	11842.000	1543.540
64.000	11820.000	1543.670
80.000	11802.000	1543.670
63.000	11795.000	1543.670
64.000	11779.000	1543.670
64.000	11761.000	1543.800
65.000	11751.000	1543.670
64.000	11734.000	1543.670
64.000	11728.000	1543.670
64.000	11716.000	1543.800
63.000	11704.000	1543.800
65.000	11687.000	1543.800
64.000	11676.000	1543.800
64.000	11664.000	1543.800
79.000	11657.000	1543.930
64.000	11638.000	1543.800
64.000	11628.000	1543.930
64.000	11622.000	1543.800
64.000	11607.000	1543.930
64.000	11593.000	1543.800
65.000	11590.000	1543.800
62.000	11600.000	1543.930
65.000	11596.000	1544.050
64.000	11595.000	1543.930
64.000	11598.000	1543.800
64.000	11592.000	1543.930
80.000	11599.000	1543.930
64.000	11596.000	1543.930
64.000	11596.000	1544.050
64.000	11601.000	1543.930
63.000	11596.000	1544.050
64.000	11599.000	1543.930
65.000	11599.000	1543.930
63.000	11597.000	1544.050
64.000	11596.000	1543.930
64.000	11596.000	1544.050
65.000	11602.000	1544.050
63.000	11599.000	1544.050
80.000	11595.000	1543.930
64.000	11600.000	1544.050
64.000	11596.000	1543.930
64.000	11599.000	1544.050
64.000	11593.000	1543.930
64.000	11598.000	1544.050
64.000	11601.000	1544.050
64.000	11600.000	1544.050
64.000	11599.000	1544.050
63.000	11595.000	1544.050
65.000	11600.000	1544.050
63.000	11597.000	1544.050
80.000	11598.000	1544.050
65.000	11605.000	1544.050
63.000	11601.000	1544.050
64.000	11602.000	1544.180
65.000	11599.000	1544.050
63.000	11605.000	1544.180
65.000	11598.000	1544.050
63.000	11598.000	1544.180
64.000	11599.000	1544.180
64.000	11600.000	1544.180
64.000	11595.000	1544.310
64.000	11597.000	1544.180
80.000	11601.000	1544.180
64.000	11598.000	1544.180
64.000	11599.000	1544.180
64.000	11601.000	1544.180
64.000	11598.000	1544.180
64.000	11599.000	1544.180
64.000	11600.000	1544.180
64.000	11598.000	1544.050
64.000	11597.000	1544.180
64.000	11601.000	1544.180
64.000	11595.000	1544.180
64.000	11599.000	1544.050
80.000	11602.000	1544.310
64.000	11597.000	1544.180
64.000	11601.000	1544.180
64.000	11603.000	1544.180
63.000	11593.000	1544.180
65.000	11597.000	1544.180
64.000	11599.000	1544.310
63.000	11599.000	1544.310
64.000	11595.000	1544.310
64.000	11596.000	1544.310
65.000	11603.000	1544.310
63.000	11599.000	1544.310
80.000	11603.000	1544.310
64.000	11598.000	1544.310
64.000	11598.000	1544.310
64.000	11596.000	1544.310
64.000	11594.000	1544.310
64.000	11604.000	1544.180
64.000	11595.000	1544.180
63.000	11605.000	1544.310
64.000	11599.000	1544.310
65.000	11599.000	1544.310
63.000	11599.000	1544.310
65.000	11603.000	1544.310
80.000	11603.000	1544.310
64.000	11601.000	1544.310
64.000	11602.000	1544.310
63.000	11603.000	1544.310
65.000	11598.000	1544.310
63.000	11600.000	1544.310
65.000	11605.000	1544.310
63.000	11607.000	1544.310
64.000	11599.000	1544.180
65.000	11599.000	1544.310
64.000	11597.000	1544.440
64.000	11602.000	1544.440
79.000	11595.000	1544.440
64.000	11604.000	1544.310
64.000	11603.000	1544.310
64.000	11606.000	1544.310
64.000	11601.000	1544.310
64.000	11598.000	1544.310
64.000	11616.000	1544.310
64.000	11627.000	1544.310
64.000	11634.000	1544.310
64.000	11639.000	1544.440
64.000	11658.000	1544.440
64.000	11663.000	1544.310
80.000	11683.000	1544.440
63.000	11695.000	1544.310
64.000	11702.000	1544.310
64.000	11716.000	1544.180
65.000	11729.000	1544.310
64.000	11743.000	1544.440
63.000	11755.000	1544.180
65.000	11769.000	1544.180
63.000	11783.000	1544.310
65.000	11793.000	1544.310
63.000	11812.000	1544.310
64.000	11825.000	1544.310
80.000	11836.000	1544.310
64.000	11857.000	1544.310
64.000	11866.000	1544.310
64.000	11883.000	1544.440
63.000	11898.000	1544.440
65.000	11909.000	1544.310
64.000	11928.000	1544.180
63.000	11946.000	1544.310
65.000	11962.000	1544.440
64.000	11973.000	1544.310
64.000	11994.000	1544.310
64.000	12010.000	1544.310
80.000	12026.000	1544.440
63.000	12043.000	1544.180
65.000	12061.000	1544.310
64.000	12078.000	1544.310
63.000	12097.000	1544.310
65.000	12113.000	1544.310
64.000	12135.000	1544.310
63.000	12149.000	1544.310
64.000	12173.000	1544.310
64.000	12190.000	1544.310
64.000	12213.000	1544.310
65.000	12229.000	1544.310
79.000	12252.000	1544.180
64.000	12273.000	1544.440
64.000	12296.000	1544.180
64.000	12314.000	1544.310
64.000	12338.000	1544.310
64.000	12362.000	1544.310
64.000	12381.000	1544.310
64.000	12407.000	1544.180
64.000	12430.000	1544.310
64.000	12452.000	1544.180
64.000	12479.000	1544.310
63.000	12506.000	1544.440
80.000	12529.000	1544.440
64.000	12559.000	1544.440
64.000	12585.000	1544.310
64.000	12610.000	1544.310
65.000	12639.000	1544.310
63.000	12664.000	1544.310
65.000	12693.000	1544.310
63.000	12723.000	1544.310
64.000	12755.000	1544.310
64.000	12781.000	1544.440
64.000	12814.000	1544.310
64.000	12847.000	1544.440
80.000	12882.000	1544.440
64.000	12910.000	1544.440
63.000	12945.000	1544.440
65.000	12976.000	1544.310
64.000	13012.000	1544.310
64.000	13048.000	1544.310
64.000	13078.000	1544.440
63.000	13116.000	1544.440
65.000	13156.000	1544.440
64.000	13192.000	1544.570
64.000	13237.000	1544.690
64.000	13275.000	1544.690
80.000	13318.000	1544.820
64.000	13354.000	1544.950
63.000	13395.000	1545.080
64.000	13441.000	1545.200
64.000	13482.000	1545.460
65.000	13529.000	1545.460
63.000	13585.000	1545.840
64.000	13633.000	1545.840
64.000	13688.000	1546.350
65.000	13746.000	1546.610
64.000	13809.000	1546.870
63.000	13872.000	1547.120
80.000	13946.000	1547.500
64.000	14018.000	1547.890
64.000	14069.000	1548.140
64.000	14135.000	1548.530
64.000	14185.000	1549.040
64.000	14244.000	1549.420
64.000	14280.000	1549.930
64.000	14297.000	1550.440
64.000	14309.000	1550.960
64.000	14318.000	1551.340
64.000	14299.000	1551.850
64.000	14299.000	1552.360
79.000	14286.000	1553.000
64.000	14276.000	1553.640
64.000	14269.000	1554.280
65.000	14263.000	1554.790
64.000	14254.000	1555.560
64.000	14244.000	1556.320
63.000	14247.000	1556.960
64.000	14249.000	1557.730
64.000	14253.000	1558.500
65.000	14266.000	1559.140
63.000	14261.000	1559.900
64.000	14276.000	1560.800
80.000	14279.000	1561.820
63.000	14284.000	1562.590
65.000	14294.000	1563.480
64.000	14312.000	1564.500
64.000	14335.000	1565.400
64.000	14356.000	1566.290
64.000	14399.000	1567.440
64.000	14454.000	1568.590
64.000	14532.000	1569.620
64.000	14625.000	1570.640
64.000	14735.000	1571.920
64.000	14852.000	1573.200
79.000	14974.000	1574.350
65.000	15109.000	1575.620
63.000	15238.000	1576.770
64.000	15357.000	1578.180
65.000	15445.000	1579.460
63.000	15521.000	1580.740
64.000	15582.000	1582.010
64.000	15603.000	1583.290
64.000	15617.000	1584.700
64.000	15595.000	1585.980
64.000	15582.000	1587.510
64.000	15582.000	1588.790
80.000	15545.000	1587.770
64.000	15542.000	1589.430
64.000	15496.000	1590.960
64.000	15445.000	1592.490
64.000	15403.000	1594.160
64.000	15346.000	1595.560
64.000	15308.000	1597.220
63.000	15277.000	1598.760
65.000	15233.000	1600.040
63.000	15224.000	1601.570
64.000	15227.000	1603.100
64.000	15220.000	1604.510
81.000	15244.000	1605.920
64.000	15260.000	1607.070
64.000	15325.000	1609.620
63.000	15379.000	1611.410
64.000	15424.000	1612.940
64.000	15460.000	1614.100
65.000	15472.000	1614.860
63.000	15518.000	1615.630
64.000	15560.000	1616.400
65.000	15618.000	1617.420
63.000	15615.000	1617.420
64.000	15529.000	1615.760
80.000	15461.000	1614.220
65.000	15401.000	1612.690
63.000	15342.000	1611.410
64.000	15288.000	1609.620
64.000	15240.000	1607.830
64.000	15199.000	1605.790
64.000	15170.000	1603.870
64.000	15153.000	1601.830
64.000	15150.000	1599.780
64.000	15170.000	1597.480
64.000	15209.000	1592.490
63.000	15260.000	1589.430
81.000	15319.000	1586.490
63.000	15376.000	1583.550
65.000	15430.000	1580.350
63.000	15481.000	1577.540
64.000	15517.000	1574.350
64.000	15532.000	1571.410
64.000	15552.000	1568.340
64.000	15540.000	1565.400
64.000	15510.000	1562.330
64.000	15439.000	1559.390
65.000	15352.000	1556.320
63.000	15245.000	1553.380
80.000	15124.000	1550.570
64.000	14977.000	1548.020
64.000	14826.000	1545.330
64.000	14673.000	1543.160
64.000	14515.000	1540.860
64.000	14373.000	1539.070
64.000	14254.000	1537.150
64.000	14138.000	1535.750
64.000	14036.000	1534.600
64.000	13944.000	1533.570
64.000	13859.000	1532.550
64.000	13779.000	1531.910
79.000	13710.000	1531.400
65.000	13653.000	1531.020
63.000	13606.000	1530.760
65.000	13571.000	1530.380
63.000	13556.000	1530.250
65.000	13538.000	1530.510
63.000	13557.000	1530.510
64.000	13569.000	1530.630
64.000	13596.000	1531.020
64.000	13630.000	1531.270
64.000	13640.000	1531.530
64.000	13463.000	1531.780
80.000	9739.000	1532.040
64.000	9404.000	1532.300
64.000	9428.000	1532.550
64.000	9451.000	1532.810
64.000	9482.000	1533.320
63.000	9515.000	1533.570
65.000	9535.000	1533.960
64.000	9567.000	1534.210
64.000	9599.000	1534.600
64.000	9624.000	1534.980
64.000	9650.000	1535.360
64.000	9677.000	1535.750
79.000	9688.000	1536.000
64.000	9696.000	1536.390
64.000	9697.000	1536.640
64.000	9694.000	1537.020
64.000	9682.000	1537.410
64.000	9658.000	1537.790
64.000	9628.000	1538.170
64.000	9604.000	1538.430
64.000	9565.000	1538.810
64.000	9380.000	1539.070
65.000	9169.000	1539.320
63.000	8979.000	1539.710
80.000	8706.000	1539.960
64.000	8435.000	1540.220
64.000	8168.000	1540.350
64.000	7878.000	1540.730
64.000	7763.000	1540.990
64.000	7705.000	1541.240
64.000	8381.000	1541.500
64.000	8873.000	1541.630
63.000	9014.000	1541.880
65.000	9109.000	1542.140
64.000	9113.000	1542.260
63.000	9089.000	1542.520
81.000	9072.000	1542.390
64.000	9051.000	1542.650
63.000	9023.000	1542.900
65.000	9004.000	1543.030
64.000	8983.000	1543.160
63.000	8961.000	1543.290
65.000	8940.000	1543.160
63.000	8913.000	1543.410
64.000	8894.000	1543.410
64.000	8865.000	1543.410
64.000	8839.000	1543.540
64.000	8818.000	1543.540
80.000	8804.000	1543.540
64.000	8775.000	1543.670
64.000	8759.000	1543.800
63.000	8734.000	1543.800
65.000	8717.000	1543.800
64.000	8699.000	1543.670
64.000	8681.000	1543.800
64.000	8655.000	1543.930
63.000	8640.000	1543.930
65.000	8621.000	1543.930
63.000	8606.000	1544.050
65.000	8584.000	1544.050
79.000	8567.000	1544.050
64.000	8538.000	1544.050
65.000	8514.000	1544.050
63.000	8496.000	1544.180
64.000	8473.000	1544.050
64.000	8462.000	1544.050
64.000	8444.000	1544.180
64.000	8428.000	1544.180
64.000	8418.000	1544.310
64.000	8400.000	1544.180
64.000	8376.000	1544.310
64.000	8367.000	1544.310
80.000	8352.000	1544.310
64.000	8341.000	1544.310
64.000	8326.000	1544.310
64.000	8311.000	1544.440
66.000	8306.000	1544.310
62.000	8587.000	1544.440
63.000	8825.000	1544.440
65.000	9263.000	1544.440
63.000	9774.000	1544.440
65.000	10098.000	1544.440
63.000	10430.000	1544.440
65.000	10870.000	1544.440
80.000	11431.000	1544.440
63.000	11554.000	1544.440
64.000	11590.000	1544.440
64.000	11596.000	1544.440
65.000	11600.000	1544.570
63.000	11600.000	1544.570
64.000	11597.000	1544.570
64.000	11591.000	1544.570
64.000	11585.000	1544.690
64.000	11582.000	1544.570
64.000	11568.000	1544.570
64.000	11567.000	1544.690
80.000	11555.000	1544.690
64.000	11550.000	1544.690
64.000	11539.000	1544.690
63.000	11536.000	1544.820
64.000	11530.000	1544.570
65.000	11522.000	1544.570
64.000	11511.000	1544.820
64.000	11504.000	1544.690
63.000	11494.000	1544.690
65.000	11486.000	1544.820
64.000	11482.000	1544.690
64.000	11475.000	1544.820
80.000	11463.000	1544.820
64.000	11456.000	1544.820
64.000	11444.000	1544.820
63.000	11442.000	1544.820
64.000	11435.000	1544.820
64.000	11448.000	1544.820
64.000	11454.000	1544.950
64.000	11453.000	1544.820
64.000	11453.000	1544.820
65.000	11452.000	1544.820
63.000	11457.000	1544.820
65.000	11465.000	1544.820
79.000	11466.000	1544.820
65.000	11467.000	1544.820
63.000	11466.000	1544.950
65.000	11468.000	1544.820
63.000	11468.000	1544.820
64.000	11472.000	1544.820
63.000	11478.000	1544.820
65.000	11472.000	1544.820
64.000	11477.000	1544.820
63.000	11482.000	1545.080
65.000	11481.000	1544.950
64.000	11479.000	1545.080
80.000	11491.000	1544.820
63.000	11489.000	1544.820
65.000	11486.000	1544.950
64.000	11491.000	1544.950
63.000	11494.000	1545.080
64.000	11494.000	1544.950
64.000	11496.000	1545.080
64.000	11493.000	1544.950
65.000	11500.000	1544.950
64.000	11499.000	1544.950
64.000	11499.000	1545.080
63.000	11503.000	1545.080
81.000	11508.000	1544.950
63.000	11504.000	1544.950
64.000	11509.000	1544.950
64.000	11508.000	1545.080
64.000	11509.000	1545.080
64.000	11513.000	1544.950
64.000	11511.000	1545.080
64.000	11509.000	1545.080
63.000	11515.000	1545.080
65.000	11520.000	1544.950
64.000	11519.000	1545.080
64.000	11522.000	1545.080
79.000	11521.000	1545.200
65.000	11521.000	1545.080
64.000	11529.000	1545.080
64.000	11528.000	1545.080
63.000	11529.000	1545.200
64.000	11529.000	1545.080
64.000	11536.000	1545.200
65.000	11534.000	1545.080
64.000	11538.000	1545.080
64.000	11541.000	1545.080
63.000	11545.000	1545.200
64.000	11544.000	1545.080
80.000	11540.000	1545.080
64.000	11544.000	1545.080
64.000	11548.000	1545.080
64.000	11548.000	1545.080
64.000	11550.000	1545.200
64.000	11546.000	1545.200
64.000	11553.000	1545.200
64.000	11548.000	1545.080
65.000	11553.000	1545.200
63.000	11554.000	1545.200
64.000	11553.000	1545.200
64.000	11555.000	1545.200
80.000	11556.000	1545.200
64.000	11559.000	1545.200
63.000	11562.000	1545.200
65.000	11562.000	1545.200
64.000	11566.000	1545.200
64.000	11566.000	1545.200
63.000	11564.000	1545.200
65.000	11568.000	1545.200
63.000	11573.000	1545.200
64.000	11573.000	1545.200
64.000	11568.000	1545.080
64.000	11573.000	1545.200
80.000	11574.000	1545.330
64.000	11571.000	1545.330
64.000	11574.000	1545.330
65.000	11577.000	1545.330
64.000	11574.000	1545.330
63.000	11577.000	1545.200
65.000	11578.000	1545.200
63.000	11583.000	1545.200
64.000	11583.000	1545.330
64.000	11584.000	1545.330
64.000	11580.000	1545.200
64.000	11588.000	1545.200
80.000	11582.000	1545.330
64.000	11586.000	1545.330
63.000	11589.000	1545.330
65.000	11592.000	1545.330
64.000	11602.000	1545.330
64.000	11614.000	1545.330
63.000	11630.000	1545.330
65.000	11639.000	1545.330
63.000	11651.000	1545.330
64.000	11660.000	1545.330
65.000	11677.000	1545.330
63.000	11684.000	1545.330
80.000	11699.000	1545.330
65.000	11711.000	1545.330
63.000	11725.000	1545.330
64.000	11734.000	1545.200
64.000	11750.000	1545.200
65.000	11763.000	1545.330
63.000	11776.000	1545.330
65.000	11790.000	1545.330
63.000	11811.000	1545.330
64.000	11820.000	1545.330
64.000	11835.000	1545.460
64.000	11855.000	1545.200
79.000	11869.000	1545.330
65.000	11878.000	1545.330
63.000	11901.000	1545.330
65.000	11915.000	1545.330
64.000	11925.000	1545.460
65.000	11946.000	1545.330
63.000	11960.000	1545.460
64.000	11977.000	1545.460
63.000	11995.000	1545.460
64.000	12013.000	1545.460
64.000	12031.000	1545.460
64.000	12049.000	1545.460
80.000	12068.000	1545.330
64.000	12089.000	1545.460
64.000	12103.000	1545.590
64.000	12125.000	1545.460
64.000	12143.000	1545.330
64.000	12162.000	1545.460
64.000	12177.000	1545.460
64.000	12197.000	1545.460
64.000	12223.000	1545.460
64.000	12242.000	1545.460
64.000	12263.000	1545.460
63.000	12281.000	1545.460
81.000	12305.000	1545.590
63.000	12324.000	1545.460
65.000	12347.000	1545.460
64.000	12369.000	1545.460
64.000	12392.000	1545.460
63.000	12416.000	1545.460
64.000	12435.000	1545.460
64.000	12460.000	1545.460
65.000	12488.000	1545.460
64.000	12514.000	1545.460
64.000	12537.000	1545.590
63.000	12562.000	1545.590
80.000	12590.000	1545.460
64.000	12618.000	1545.460
64.000	12646.000	1545.460
64.000	12674.000	1545.590
64.000	12703.000	1545.590
64.000	12735.000	1545.460
64.000	12763.000	1545.460
64.000	12789.000	1545.590
64.000	12823.000	1545.460
64.000	12851.000	1545.590
64.000	12885.000	1545.590
64.000	12916.000	1545.460
79.000	12948.000	1545.460
65.000	12981.000	1545.590
64.000	13024.000	1545.590
64.000	13054.000	1545.590
64.000	13087.000	1545.590
63.000	13123.000	1545.720
64.000	13164.000	1545.720
65.000	13205.000	1545.720
63.000	13246.000	1545.720
65.000	13275.000	1545.840
63.000	13316.000	1545.970
64.000	13360.000	1545.970
81.000	13392.000	1545.970
63.000	13432.000	1546.350
64.000	13472.000	1546.350
64.000	13524.000	1546.480
64.000	13571.000	1546.740
63.000	13625.000	1546.990
65.000	13676.000	1547.250
64.000	13739.000	1547.500
64.000	13798.000	1547.760
64.000	13868.000	1548.140
64.000	13937.000	1548.400
64.000	14010.000	1548.780
80.000	14073.000	1549.170
64.000	14138.000	1549.680
64.000	14199.000	1550.060
64.000	14243.000	1550.440
64.000	14275.000	1550.830
64.000	14298.000	1551.340
64.000	14308.000	1551.980
64.000	14304.000	1552.360
63.000	14296.000	1552.870
64.000	14286.000	1553.380
64.000	14277.000	1554.150
64.000	14275.000	1554.790
81.000	14269.000	1555.430
64.000	14265.000	1556.070
63.000	14255.000	1556.710
64.000	14258.000	1557.350
64.000	14246.000	1557.990
64.000	14248.000	1558.750
64.000	14240.000	1559.650
64.000	14243.000	1560.290
64.000	14248.000	1561.180
64.000	14242.000	1561.950
64.000	14239.000	1562.840
64.000	14226.000	1563.740
80.000	14230.000	1564.630
64.000	14249.000	1565.530
64.000	14268.000	1566.550
64.000	14294.000	1567.570
64.000	14333.000	1568.470
64.000	14394.000	1569.740
63.000	14457.000	1570.770
64.000	14546.000	1572.040
64.000	14655.000	1573.200
65.000	14781.000	1574.350
63.000	14911.000	1575.620
64.000	15052.000	1576.900
81.000	15183.000	1578.180
63.000	15290.000	1579.460
64.000	15387.000	1580.740
64.000	15460.000	1582.010
64.000	15508.000	1583.420
64.000	15550.000	1584.700
64.000	15574.000	1585.850
64.000	15583.000	1587.380
64.000	15570.000	1588.790
64.000	15548.000	1587.640
64.000	15544.000	1589.040
63.000	15516.000	1590.580
81.000	15501.000	1592.240
63.000	15459.000	1593.900
66.000	15422.000	1595.430
63.000	15371.000	1596.970
64.000	15324.000	1598.500
64.000	15300.000	1599.910
64.000	15262.000	1601.440
64.000	15235.000	1602.980
64.000	15249.000	1604.380
64.000	15251.000	1605.790
63.000	15260.000	1607.070
64.000	15292.000	1608.340
80.000	15335.000	1611.160
64.000	15379.000	1612.560
64.000	15435.000	1613.970
64.000	15493.000	1615.120
64.000	15520.000	1615.880
64.000	15533.000	1616.780
64.000	15583.000	1617.550
64.000	15636.000	1618.310
64.000	15636.000	1618.310
64.000	15560.000	1616.650
64.000	15488.000	1615.250
64.000	15416.000	1613.710
79.000	15362.000	1612.310
64.000	15308.000	1610.640
65.000	15258.000	1608.850
64.000	15215.000	1606.810
64.000	15185.000	1604.890
64.000	15169.000	1602.850
64.000	15170.000	1600.670
63.000	15197.000	1598.500
65.000	15239.000	1593.520
64.000	15299.000	1590.450
63.000	15362.000	1587.510
64.000	15422.000	1584.440
80.000	15469.000	1581.380
64.000	15518.000	1578.440
64.000	15560.000	1575.500
64.000	15594.000	1572.430
63.000	15612.000	1569.360
65.000	15599.000	1566.290
64.000	15559.000	1563.350
64.000	15493.000	1560.410
64.000	15407.000	1557.350
64.000	15301.000	1554.530
64.000	15173.000	1551.590
64.000	15025.000	1548.780
80.000	14866.000	1546.350
64.000	14719.000	1543.930
64.000	14560.000	1541.750
63.000	14418.000	1539.840
65.000	14280.000	1538.170
63.000	14163.000	1536.510
65.000	14059.000	1535.360
64.000	13970.000	1534.210
64.000	13894.000	1533.320
63.000	13827.000	1532.680
64.000	13753.000	1532.040
65.000	13701.000	1531.660
79.000	13660.000	1531.400
64.000	13623.000	1531.140
64.000	13601.000	1531.020
64.000	13609.000	1531.140
65.000	13611.000	1531.400
63.000	13498.000	1531.270
64.000	10563.000	1531.660
64.000	9326.000	1531.780
64.000	9330.000	1532.040
64.000	9351.000	1532.300
64.000	9380.000	1532.550
63.000	9409.000	1533.060
81.000	9440.000	1533.190
64.000	9475.000	1533.570
64.000	9515.000	1533.960
64.000	9549.000	1534.340
63.000	9570.000	1534.600
65.000	9590.000	1534.850
64.000	9615.000	1535.360
64.000	9643.000	1535.620
64.000	9664.000	1536.130
63.000	9686.000	1536.390
64.000	9703.000	1536.640
64.000	9705.000	1537.020
80.000	9700.000	1537.410
64.000	9690.000	1537.790
64.000	9678.000	1538.050
64.000	9657.000	1538.430
64.000	9626.000	1538.690
64.000	9497.000	1539.200
64.000	9253.000	1539.320
64.000	9051.000	1539.710
64.000	8752.000	1540.090
64.000	8476.000	1540.350
64.000	8166.000	1540.480
64.000	7786.000	1540.860
80.000	7553.000	1540.990
64.000	7464.000	1541.370
63.000	7447.000	1541.630
65.000	7444.000	1541.880
63.000	8274.000	1542.140
64.000	8804.000	1542.260
65.000	9046.000	1542.520
64.000	9141.000	1542.780
64.000	9124.000	1543.030
63.000	9104.000	1543.160
64.000	9088.000	1543.290
64.000	9058.000	1543.410
80.000	9034.000	1543.540
64.000	9010.000	1543.540
64.000	8993.000	1543.800
64.000	8961.000	1543.800
64.000	8939.000	1544.050
64.000	8912.000	1543.930
64.000	8880.000	1544.180
64.000	8833.000	1544.180
64.000	8818.000	1544.180
64.000	8794.000	1544.310
64.000	8768.000	1544.310
64.000	8755.000	1544.310
79.000	8743.000	1544.440
64.000	11050.000	1544.440
65.000	11751.000	1544.570
64.000	11758.000	1544.440
64.000	11749.000	1544.570
63.000	11737.000	1544.570
64.000	11723.000	1544.690
65.000	11712.000	1544.690
64.000	11691.000	1544.690
63.000	11672.000	1544.690
65.000	11652.000	1544.690
64.000	11632.000	1544.690
79.000	11619.000	1544.820
65.000	11597.000	1544.820
64.000	11578.000	1544.950
63.000	11562.000	1544.820
64.000	11545.000	1544.950
64.000	11526.000	1544.820
64.000	11514.000	1544.950
64.000	11501.000	1544.950
64.000	11482.000	1544.950
64.000	11465.000	1544.950
64.000	11446.000	1544.820
64.000	11434.000	1544.950
79.000	11421.000	1544.950
64.000	11404.000	1545.080
65.000	11392.000	1544.950
64.000	11379.000	1545.080
64.000	11366.000	1545.080
63.000	11347.000	1545.080
65.000	11334.000	1545.080
64.000	11320.000	1545.200
63.000	11308.000	1545.080
65.000	11292.000	1545.200
64.000	11282.000	1545.200
63.000	11270.000	1545.200
81.000	11256.000	1545.200
63.000	11246.000	1545.200
64.000	11231.000	1545.200
64.000	11217.000	1545.200
64.000	11208.000	1545.200
64.000	11196.000	1545.200
64.000	11186.000	1545.200
64.000	11170.000	1545.200
64.000	11157.000	1545.460
64.000	11146.000	1545.330
64.000	11137.000	1545.330
64.000	11132.000	1545.330
80.000	11120.000	1545.460
64.000	11101.000	1545.330
64.000	11095.000	1545.330
64.000	11077.000	1545.330
64.000	11067.000	1545.460
63.000	11065.000	1545.460
65.000	11046.000	1545.330
63.000	11036.000	1545.460
64.000	11025.000	1545.460
64.000	11020.000	1545.330
64.000	11003.000	1545.330
64.000	11000.000	1545.460
80.000	10994.000	1545.460
64.000	10984.000	1545.460
64.000	10985.000	1545.460
64.000	10985.000	1545.460
64.000	10986.000	1545.590
65.000	10987.000	1545.720
63.000	10994.000	1545.460
64.000	10996.000	1545.460
64.000	10998.000	1545.590
64.000	10997.000	1545.590
64.000	11000.000	1545.460
64.000	10998.000	1545.460
80.000	10996.000	1545.720
63.000	11001.000	1545.590
65.000	11002.000	1545.590
63.000	10999.000	1545.590
64.000	11000.000	1545.590
65.000	11007.000	1545.590
64.000	11009.000	1545.590
63.000	11008.000	1545.460
65.000	11014.000	1545.590
63.000	11015.000	1545.590
65.000	11019.000	1545.590
63.000	11016.000	1545.460
80.000	11020.000	1545.720
64.000	11016.000	1545.590
64.000	11020.000	1545.720
64.000	11019.000	1545.590
64.000	11028.000	1545.720
64.000	11020.000	1545.720
64.000	11023.000	1545.590
64.000	11030.000	1545.720
64.000	11026.000	1545.720
64.000	11031.000	1545.720
63.000	11024.000	1545.840
65.000	11029.000	1545.590
80.000	11031.000	1545.590
64.000	11038.000	1545.840
64.000	11034.000	1545.720
64.000	11034.000	1545.720
64.000	11033.000	1545.720
63.000	11040.000	1545.720
64.000	11044.000	1545.720
64.000	11046.000	1545.720
64.000	11044.000	1545.720
65.000	11048.000	1545.720
63.000	11050.000	1545.840
64.000	11043.000	1545.840
80.000	11048.000	1545.840
64.000	11047.000	1545.840
64.000	11046.000	1545.970
64.000	11049.000	1545.720
64.000	11053.000	1545.720
64.000	11052.000	1545.720
64.000	11057.000	1545.840
64.000	11054.000	1545.720
63.000	11058.000	1545.720
65.000	11060.000	1545.840
64.000	11066.000	1545.840
64.000	11060.000	1545.840
80.000	11065.000	1545.720
64.000	11062.000	1545.720
63.000	11059.000	1545.840
64.000	11065.000	1545.840
65.000	11062.000	1545.840
63.000	11066.000	1545.840
64.000	11070.000	1545.840
64.000	11066.000	1545.720
64.000	11073.000	1545.840
64.000	11069.000	1545.970
64.000	11069.000	1545.840
65.000	11071.000	1545.720
79.000	11072.000	1545.970
64.000	11075.000	1545.840
64.000	11069.000	1545.970
65.000	11077.000	1545.840
63.000	11078.000	1545.840
64.000	11075.000	1545.970
64.000	11079.000	1545.970
64.000	11079.000	1545.840
64.000	11077.000	1545.840
63.000	11084.000	1545.970
65.000	11089.000	1545.840
63.000	11086.000	1545.840
81.000	11086.000	1545.840
64.000	11084.000	1545.840
64.000	11087.000	1545.970
64.000	11091.000	1545.970
64.000	11089.000	1545.970
64.000	11095.000	1545.970
63.000	11093.000	1545.970
65.000	11092.000	1545.970
64.000	11100.000	1545.970
63.000	11096.000	1545.970
65.000	11096.000	1545.970
63.000	11098.000	1545.970
80.000	11104.000	1545.970
65.000	11102.000	1545.970
63.000	11101.000	1546.100
64.000	11100.000	1545.970
64.000	11103.000	1545.970
63.000	11110.000	1546.100
65.000	11105.000	1545.970
64.000	11114.000	1545.970
64.000	11112.000	1545.970
64.000	11115.000	1546.100
63.000	11116.000	1546.100
64.000	11115.000	1545.970
81.000	11121.000	1545.970
63.000	11119.000	1545.970
64.000	11112.000	1546.100
65.000	11124.000	1546.100
63.000	11119.000	1545.970
65.000	11120.000	1546.100
63.000	11121.000	1545.970
64.000	11122.000	1546.100
65.000	11125.000	1546.100
64.000	11129.000	1545.970
64.000	11130.000	1545.970
64.000	11135.000	1545.970
79.000	11133.000	1546.100
64.000	11129.000	1546.100
64.000	11137.000	1545.970
64.000	11135.000	1546.100
64.000	11138.000	1546.100
64.000	11137.000	1545.970
64.000	11132.000	1546.100
64.000	11139.000	1546.100
64.000	11137.000	1546.100
63.000	11144.000	1546.100
65.000	11150.000	1546.100
63.000	11139.000	1545.970
81.000	11148.000	1546.100
63.000	11141.000	1546.100
64.000	11146.000	1546.100
65.000	11149.000	1546.100
63.000	11144.000	1546.100
65.000	11152.000	1546.230
63.000	11147.000	1546.230
65.000	11153.000	1546.100
63.000	11153.000	1546.230
64.000	11155.000	1546.100
64.000	11158.000	1546.100
65.000	11159.000	1546.100
80.000	11160.000	1546.100
63.000	11157.000	1545.970
64.000	11162.000	1546.230
64.000	11158.000	1546.100
64.000	11160.000	1546.230
64.000	11160.000	1546.100
64.000	11158.000	1546.100
64.000	11163.000	1546.230
64.000	11167.000	1546.100
63.000	11171.000	1546.100
65.000	11168.000	1546.230
63.000	11167.000	1546.230
81.000	11170.000	1546.100
64.000	11170.000	1546.100
64.000	11174.000	1546.100
64.000	11175.000	1546.230
64.000	11174.000	1546.230
64.000	11170.000	1546.230
63.000	11172.000	1546.100
64.000	11179.000	1546.100
65.000	11178.000	1546.100
63.000	11176.000	1546.100
64.000	11180.000	1546.100
64.000	11181.000	1546.230
80.000	11181.000	1546.100
64.000	11181.000	1546.100
64.000	11185.000	1546.230
64.000	11185.000	1546.230
64.000	11182.000	1545.970
64.000	11187.000	1546.230
64.000	11192.000	1546.230
64.000	11194.000	1546.230
64.000	11194.000	1546.230
64.000	11196.000	1546.100
63.000	11194.000	1546.100
65.000	11196.000	1546.230
80.000	11198.000	1546.230
64.000	11196.000	1546.230
64.000	11198.000	1546.230
64.000	11195.000	1546.230
64.000	11201.000	1546.100
63.000	11204.000	1546.230
65.000	11203.000	1546.230
63.000	11204.000	1546.230
65.000	11204.000	1546.230
63.000	11209.000	1546.100
64.000	11209.000	1546.230
64.000	11206.000	1546.230
80.000	11206.000	1546.230
64.000	11212.000	1546.230
64.000	11208.000	1546.230
64.000	11211.000	1546.350
64.000	11214.000	1546.230
64.000	11219.000	1546.350
64.000	11222.000	1546.230
64.000	11224.000	1546.100
64.000	11224.000	1546.230
63.000	11224.000	1546.100
65.000	11226.000	1546.230
64.000	11231.000	1546.230
79.000	11230.000	1546.350
65.000	11233.000	1546.230
64.000	11237.000	1546.230
63.000	11244.000	1546.230
64.000	11249.000	1546.350
64.000	11249.000	1546.230
64.000	11252.000	1546.230
65.000	11250.000	1546.350
63.000	11259.000	1546.350
64.000	11259.000	1546.230
64.000	11268.000	1546.350
64.000	11279.000	1546.230
80.000	11282.000	1546.230
64.000	11283.000	1546.230
64.000	11287.000	1546.350
65.000	11286.000	1546.350
63.000	11290.000	1546.350
64.000	11293.000	1546.350
64.000	11297.000	1546.230
64.000	11294.000	1546.230
64.000	11296.000	1546.230
64.000	11297.000	1546.350
64.000	11299.000	1546.230
64.000	11297.000	1546.230
80.000	11300.000	1546.350
64.000	11304.000	1546.230
63.000	11302.000	1546.230
65.000	11303.000	1546.350
63.000	11299.000	1546.230
65.000	11301.000	1546.230
64.000	11304.000	1546.350
64.000	11306.000	1546.350
63.000	11306.000	1546.350
65.000	11311.000	1546.230
63.000	11308.000	1546.350
64.000	11307.000	1546.230
80.000	11307.000	1546.350
64.000	11312.000	1546.350
64.000	11316.000	1546.350
64.000	11309.000	1546.350
64.000	11312.000	1546.350
64.000	11310.000	1546.350
64.000	11313.000	1546.350
64.000	11319.000	1546.350
63.000	11312.000	1546.350
65.000	11321.000	1546.350
64.000	11317.000	1546.350
63.000	11319.000	1546.350
80.000	11316.000	1546.230
65.000	11319.000	1546.480
64.000	11323.000	1546.230
63.000	11324.000	1546.480
64.000	11323.000	1546.350
65.000	11325.000	1546.350
63.000	11321.000	1546.350
64.000	11328.000	1546.350
64.000	11324.000	1546.350
64.000	11330.000	1546.350
64.000	11327.000	1546.350
64.000	11326.000	1546.230
80.000	11332.000	1546.350
64.000	11334.000	1546.350
64.000	11336.000	1546.480
64.000	11336.000	1546.350
64.000	11335.000	1546.350
64.000	11331.000	1546.350
64.000	11337.000	1546.230
64.000	11339.000	1546.350
63.000	11337.000	1546.230
65.000	11338.000	1546.350
64.000	11333.000	1546.350
64.000	11334.000	1546.350
79.000	11342.000	1546.350
65.000	11339.000	1546.480
63.000	11343.000	1546.480
64.000	11342.000	1546.350
65.000	11343.000	1546.350
63.000	11341.000	1546.350
65.000	11349.000	1546.480
63.000	11342.000	1546.350
65.000	11345.000	1546.350
64.000	11347.000	1546.350
63.000	11347.000	1546.350
64.000	11347.000	1546.350
81.000	11348.000	1546.350
63.000	11352.000	1546.480
64.000	11354.000	1546.480
64.000	11352.000	1546.350
64.000	11351.000	1546.350
64.000	11353.000	1546.480
64.000	11353.000	1546.350
64.000	11356.000	1546.480
64.000	11362.000	1546.350
64.000	11360.000	1546.480
64.000	11361.000	1546.350
63.000	11364.000	1546.350
80.000	11363.000	1546.480
64.000	11370.000	1546.350
65.000	11369.000	1546.350
64.000	11377.000	1546.480
65.000	11370.000	1546.480
62.000	11378.000	1546.480
